;; AMAZONIA1/WFI RSR of Right Camera 
;;
;; Quinten Vanhellemont 2022-02-06
;; from files WFI_QM_RE_OD_B13_20130731.txt, WFI_QM_RE_OD_B14_20130731.txt, WFI_QM_RE_OD_B15_20130731.txt, WFI_QM_RE_OD_B16_20130731.txt
;;
;;
;; datasets: wavelength, RSR
;;
;; BAND 1
420.000000 0.005245 
425.000000 0.004232 
430.000000 0.005150 
435.000000 0.004619 
440.000000 0.006628 
445.000000 0.014616 
450.000000 0.072971 
455.000000 0.215572 
460.000000 0.330873 
465.000000 0.391840 
470.000000 0.456304 
475.000000 0.504440 
480.000000 0.541912 
485.000000 0.575420 
490.000000 0.621048 
495.000000 0.725572 
500.000000 0.820970 
505.000000 0.890073 
510.000000 1.000000 
515.000000 0.997193 
520.000000 0.687880 
525.000000 0.147085 
530.000000 0.046065 
535.000000 0.016336 
540.000000 0.010258 
545.000000 0.006614 
550.000000 0.005782 
555.000000 0.005354 
560.000000 0.004729 
565.000000 0.003866 
570.000000 0.004264 
575.000000 0.003950 
580.000000 0.004032 
585.000000 0.004700 
590.000000 0.004283 
595.000000 0.004835 
600.000000 0.003226 
605.000000 0.000000 
610.000000 0.000000 
615.000000 0.000000 
620.000000 0.000000 
625.000000 0.000000 
630.000000 0.000000 
635.000000 0.000000 
640.000000 0.000000 
645.000000 0.000000 
650.000000 0.000000 
655.000000 0.000000 
660.000000 0.000000 
665.000000 0.000000 
670.000000 0.000000 
675.000000 0.000000 
680.000000 0.000000 
685.000000 0.000000 
690.000000 0.000000 
695.000000 0.000000 
700.000000 0.000000 
705.000000 0.000000 
710.000000 0.000000 
715.000000 0.000000 
720.000000 0.000000 
725.000000 0.000000 
730.000000 0.000000 
735.000000 0.000000 
740.000000 0.000000 
745.000000 0.000000 
750.000000 0.000000 
755.000000 0.000000 
760.000000 0.000000 
765.000000 0.000000 
770.000000 0.000000 
775.000000 0.000000 
780.000000 0.000000 
785.000000 0.000000 
790.000000 0.000000 
795.000000 0.000000 
800.000000 0.000000 
805.000000 0.000000 
810.000000 0.000000 
815.000000 0.000000 
820.000000 0.000000 
825.000000 0.000000 
830.000000 0.000000 
835.000000 0.000000 
840.000000 0.000000 
845.000000 0.000000 
850.000000 0.000000 
855.000000 0.000000 
860.000000 0.000000 
865.000000 0.000000 
870.000000 0.000000 
875.000000 0.000000 
880.000000 0.000000 
885.000000 0.000000 
890.000000 0.000000 
895.000000 0.000000 
900.000000 0.000000 
905.000000 0.000000 
910.000000 0.000000 
915.000000 0.000000 
920.000000 0.000000 
;;
;; BAND 2
420.000000 0.000000 
425.000000 0.000000 
430.000000 0.000000 
435.000000 0.000000 
440.000000 0.000000 
445.000000 0.000000 
450.000000 0.005011 
455.000000 0.004380 
460.000000 0.005650 
465.000000 0.005098 
470.000000 0.005203 
475.000000 0.005492 
480.000000 0.005377 
485.000000 0.005686 
490.000000 0.006945 
495.000000 0.010684 
500.000000 0.031308 
505.000000 0.034874 
510.000000 0.110801 
515.000000 0.599999 
520.000000 1.000000 
525.000000 0.981791 
530.000000 0.959314 
535.000000 0.946222 
540.000000 0.939856 
545.000000 0.926986 
550.000000 0.921742 
555.000000 0.916062 
560.000000 0.918618 
565.000000 0.919429 
570.000000 0.918989 
575.000000 0.918646 
580.000000 0.918921 
585.000000 0.925055 
590.000000 0.936700 
595.000000 0.947902 
600.000000 0.964414 
605.000000 0.419652 
610.000000 0.112106 
615.000000 0.030544 
620.000000 0.013897 
625.000000 0.008100 
630.000000 0.005466 
635.000000 0.003506 
640.000000 0.001999 
645.000000 0.000000 
650.000000 0.000000 
655.000000 0.000000 
660.000000 0.000000 
665.000000 0.000000 
670.000000 0.000000 
675.000000 0.000000 
680.000000 0.000000 
685.000000 0.000000 
690.000000 0.000000 
695.000000 0.000000 
700.000000 0.000000 
705.000000 0.000000 
710.000000 0.000000 
715.000000 0.000000 
720.000000 0.000000 
725.000000 0.000000 
730.000000 0.000000 
735.000000 0.000000 
740.000000 0.000000 
745.000000 0.000000 
750.000000 0.000000 
755.000000 0.000000 
760.000000 0.000000 
765.000000 0.000000 
770.000000 0.000000 
775.000000 0.000000 
780.000000 0.000000 
785.000000 0.000000 
790.000000 0.000000 
795.000000 0.000000 
800.000000 0.000000 
805.000000 0.000000 
810.000000 0.000000 
815.000000 0.000000 
820.000000 0.000000 
825.000000 0.000000 
830.000000 0.000000 
835.000000 0.000000 
840.000000 0.000000 
845.000000 0.000000 
850.000000 0.000000 
855.000000 0.000000 
860.000000 0.000000 
865.000000 0.000000 
870.000000 0.000000 
875.000000 0.000000 
880.000000 0.000000 
885.000000 0.000000 
890.000000 0.000000 
895.000000 0.000000 
900.000000 0.000000 
905.000000 0.000000 
910.000000 0.000000 
915.000000 0.000000 
920.000000 0.000000 
;;
;; BAND 3
420.000000 0.000000 
425.000000 0.000000 
430.000000 0.000000 
435.000000 0.000000 
440.000000 0.000000 
445.000000 0.000000 
450.000000 0.000000 
455.000000 0.000000 
460.000000 0.000000 
465.000000 0.000000 
470.000000 0.000000 
475.000000 0.000000 
480.000000 0.000000 
485.000000 0.000000 
490.000000 0.000000 
495.000000 0.000000 
500.000000 0.000000 
505.000000 0.000000 
510.000000 0.000000 
515.000000 0.000000 
520.000000 0.000000 
525.000000 0.000000 
530.000000 0.000000 
535.000000 0.000000 
540.000000 0.000000 
545.000000 0.000000 
550.000000 0.000000 
555.000000 0.000000 
560.000000 0.000000 
565.000000 0.000000 
570.000000 0.000000 
575.000000 0.000000 
580.000000 0.005534 
585.000000 0.006031 
590.000000 0.005592 
595.000000 0.004937 
600.000000 0.000088 
605.000000 0.001147 
610.000000 0.014641 
615.000000 0.052963 
620.000000 0.397154 
625.000000 0.766724 
630.000000 0.917151 
635.000000 0.944761 
640.000000 0.948591 
645.000000 0.957919 
650.000000 1.000000 
655.000000 0.975593 
660.000000 0.907217 
665.000000 0.879429 
670.000000 0.873367 
675.000000 0.853074 
680.000000 0.530974 
685.000000 0.198709 
690.000000 0.034638 
695.000000 0.012552 
700.000000 0.001593 
705.000000 0.001438 
710.000000 0.000521 
715.000000 0.000000 
720.000000 0.000000 
725.000000 0.000000 
730.000000 0.000000 
735.000000 0.000000 
740.000000 0.000000 
745.000000 0.000000 
750.000000 0.000000 
755.000000 0.000000 
760.000000 0.000000 
765.000000 0.000000 
770.000000 0.000000 
775.000000 0.000000 
780.000000 0.000000 
785.000000 0.000000 
790.000000 0.000000 
795.000000 0.000000 
800.000000 0.000000 
805.000000 0.000000 
810.000000 0.000000 
815.000000 0.000000 
820.000000 0.000000 
825.000000 0.000000 
830.000000 0.000000 
835.000000 0.000000 
840.000000 0.000000 
845.000000 0.000000 
850.000000 0.000000 
855.000000 0.000000 
860.000000 0.000000 
865.000000 0.000000 
870.000000 0.000000 
875.000000 0.000000 
880.000000 0.000000 
885.000000 0.000000 
890.000000 0.000000 
895.000000 0.000000 
900.000000 0.000000 
905.000000 0.000000 
910.000000 0.000000 
915.000000 0.000000 
920.000000 0.000000 
;;
;; BAND 4
420.000000 0.000000 
425.000000 0.000000 
430.000000 0.000000 
435.000000 0.000000 
440.000000 0.000000 
445.000000 0.000000 
450.000000 0.000000 
455.000000 0.000000 
460.000000 0.000000 
465.000000 0.000000 
470.000000 0.000000 
475.000000 0.000000 
480.000000 0.000000 
485.000000 0.000000 
490.000000 0.000000 
495.000000 0.000000 
500.000000 0.000000 
505.000000 0.000000 
510.000000 0.000000 
515.000000 0.000000 
520.000000 0.000000 
525.000000 0.000000 
530.000000 0.000000 
535.000000 0.000000 
540.000000 0.000000 
545.000000 0.000000 
550.000000 0.000000 
555.000000 0.000000 
560.000000 0.000000 
565.000000 0.000000 
570.000000 0.000000 
575.000000 0.000000 
580.000000 0.000000 
585.000000 0.000000 
590.000000 0.000000 
595.000000 0.000000 
600.000000 0.000000 
605.000000 0.000000 
610.000000 0.000000 
615.000000 0.000000 
620.000000 0.000000 
625.000000 0.000000 
630.000000 0.000000 
635.000000 0.000000 
640.000000 0.000000 
645.000000 0.000000 
650.000000 0.000000 
655.000000 0.000000 
660.000000 0.000000 
665.000000 0.000000 
670.000000 0.000000 
675.000000 0.000000 
680.000000 0.000000 
685.000000 0.000000 
690.000000 0.000000 
695.000000 0.000000 
700.000000 0.004458 
705.000000 0.005212 
710.000000 0.005294 
715.000000 0.005838 
720.000000 0.005805 
725.000000 0.006247 
730.000000 0.007434 
735.000000 0.009071 
740.000000 0.014273 
745.000000 0.023602 
750.000000 0.037796 
755.000000 0.058161 
760.000000 0.100610 
765.000000 0.222729 
770.000000 0.607334 
775.000000 1.000000 
780.000000 0.939732 
785.000000 0.828428 
790.000000 0.778250 
795.000000 0.767656 
800.000000 0.760926 
805.000000 0.754079 
810.000000 0.757492 
815.000000 0.756476 
820.000000 0.739288 
825.000000 0.737127 
830.000000 0.723470 
835.000000 0.719693 
840.000000 0.710535 
845.000000 0.687836 
850.000000 0.671049 
855.000000 0.615753 
860.000000 0.582881 
865.000000 0.527103 
870.000000 0.468958 
875.000000 0.417982 
880.000000 0.381754 
885.000000 0.322474 
890.000000 0.210976 
895.000000 0.105473 
900.000000 0.047633 
905.000000 0.023805 
910.000000 0.001395 
915.000000 0.000000 
920.000000 0.000000