;; AMAZONIA1/WFI RSR of Left Camera
;;
;; Quinten Vanhellemont 2022-02-06
;; from files WFI_QM_RE_OE_B13_20130731.txt, WFI_QM_RE_OE_B14_20130731.txt, WFI_QM_RE_OE_B15_20130731.txt, WFI_QM_RE_OE_B16_20130731.txt
;;
;;
;; datasets: wavelength, RSR
;;
;; BAND 1
420.000000 0.000000 
425.000000 0.000000 
430.000000 0.000000 
435.000000 0.000000 
440.000000 0.000343 
445.000000 0.027120 
450.000000 0.159359 
455.000000 0.734836 
460.000000 1.000000 
465.000000 0.967427 
470.000000 0.938777 
475.000000 0.916297 
480.000000 0.898144 
485.000000 0.882801 
490.000000 0.868241 
495.000000 0.861915 
500.000000 0.847617 
505.000000 0.826272 
510.000000 0.820392 
515.000000 0.805033 
520.000000 0.776328 
525.000000 0.195792 
530.000000 0.052785 
535.000000 0.013238 
540.000000 0.003898 
545.000000 0.000437 
550.000000 0.000000 
555.000000 0.000000 
560.000000 0.000000 
565.000000 0.000000 
570.000000 0.000000 
575.000000 0.000000 
580.000000 0.000000 
585.000000 0.000000 
590.000000 0.000000 
595.000000 0.000000 
600.000000 0.000000 
605.000000 0.000000 
610.000000 0.000000 
615.000000 0.000000 
620.000000 0.000000 
625.000000 0.000000 
630.000000 0.000000 
635.000000 0.000000 
640.000000 0.000000 
645.000000 0.000000 
650.000000 0.000000 
655.000000 0.000000 
660.000000 0.000000 
665.000000 0.000000 
670.000000 0.000000 
675.000000 0.000000 
680.000000 0.000000 
685.000000 0.000000 
690.000000 0.000000 
695.000000 0.000000 
700.000000 0.000000 
705.000000 0.000000 
710.000000 0.000000 
715.000000 0.000000 
720.000000 0.000000 
725.000000 0.000000 
730.000000 0.000000 
735.000000 0.000000 
740.000000 0.000000 
745.000000 0.000000 
750.000000 0.000000 
755.000000 0.000000 
760.000000 0.000000 
765.000000 0.000000 
770.000000 0.000000 
775.000000 0.000000 
780.000000 0.000000 
785.000000 0.000000 
790.000000 0.000000 
795.000000 0.000000 
800.000000 0.000000 
805.000000 0.000000 
810.000000 0.000000 
815.000000 0.000000 
820.000000 0.000000 
825.000000 0.000000 
830.000000 0.000000 
835.000000 0.000000 
840.000000 0.000000 
845.000000 0.000000 
850.000000 0.000000 
855.000000 0.000000 
860.000000 0.000000 
865.000000 0.000000 
870.000000 0.000000 
875.000000 0.000000 
880.000000 0.000000 
885.000000 0.000000 
890.000000 0.000000 
895.000000 0.000000 
900.000000 0.000000 
905.000000 0.000000 
910.000000 0.000000 
915.000000 0.000000 
920.000000 0.000000 
;;
;; BAND 2
420.000000 0.000000 
425.000000 0.000000 
430.000000 0.000000 
435.000000 0.000000 
440.000000 0.000000 
445.000000 0.000000 
450.000000 0.000000 
455.000000 0.000000 
460.000000 0.000000 
465.000000 0.000000 
470.000000 0.000000 
475.000000 0.000000 
480.000000 0.000000 
485.000000 0.000000 
490.000000 0.000000 
495.000000 0.000000 
500.000000 0.002787 
505.000000 0.003877 
510.000000 0.050973 
515.000000 0.257939 
520.000000 0.775467 
525.000000 0.831703 
530.000000 0.862457 
535.000000 0.895887 
540.000000 0.868734 
545.000000 0.886492 
550.000000 0.893894 
555.000000 0.958189 
560.000000 1.000000 
565.000000 0.956081 
570.000000 0.959031 
575.000000 0.896924 
580.000000 0.886359 
585.000000 0.852023 
590.000000 0.802688 
595.000000 0.655466 
600.000000 0.373130 
605.000000 0.121867 
610.000000 0.023353 
615.000000 0.001012 
620.000000 0.000000 
625.000000 0.000000 
630.000000 0.000000 
635.000000 0.000000 
640.000000 0.000000 
645.000000 0.000000 
650.000000 0.000000 
655.000000 0.000000 
660.000000 0.000000 
665.000000 0.000000 
670.000000 0.000000 
675.000000 0.000000 
680.000000 0.000000 
685.000000 0.000000 
690.000000 0.000000 
695.000000 0.000000 
700.000000 0.000000 
705.000000 0.000000 
710.000000 0.000000 
715.000000 0.000000 
720.000000 0.000000 
725.000000 0.000000 
730.000000 0.000000 
735.000000 0.000000 
740.000000 0.000000 
745.000000 0.000000 
750.000000 0.000000 
755.000000 0.000000 
760.000000 0.000000 
765.000000 0.000000 
770.000000 0.000000 
775.000000 0.000000 
780.000000 0.000000 
785.000000 0.000000 
790.000000 0.000000 
795.000000 0.000000 
800.000000 0.000000 
805.000000 0.000000 
810.000000 0.000000 
815.000000 0.000000 
820.000000 0.000000 
825.000000 0.000000 
830.000000 0.000000 
835.000000 0.000000 
840.000000 0.000000 
845.000000 0.000000 
850.000000 0.000000 
855.000000 0.000000 
860.000000 0.000000 
865.000000 0.000000 
870.000000 0.000000 
875.000000 0.000000 
880.000000 0.000000 
885.000000 0.000000 
890.000000 0.000000 
895.000000 0.000000 
900.000000 0.000000 
905.000000 0.000000 
910.000000 0.000000 
915.000000 0.000000 
920.000000 0.000000 
;;
;; BAND 3
420.000000 0.000000 
425.000000 0.000000 
430.000000 0.000000 
435.000000 0.000000 
440.000000 0.000000 
445.000000 0.000000 
450.000000 0.000000 
455.000000 0.000000 
460.000000 0.000000 
465.000000 0.000000 
470.000000 0.000000 
475.000000 0.000000 
480.000000 0.000000 
485.000000 0.000000 
490.000000 0.000000 
495.000000 0.000000 
500.000000 0.000000 
505.000000 0.000000 
510.000000 0.000000 
515.000000 0.000000 
520.000000 0.000000 
525.000000 0.000000 
530.000000 0.000000 
535.000000 0.000000 
540.000000 0.000000 
545.000000 0.000000 
550.000000 0.000000 
555.000000 0.000000 
560.000000 0.000000 
565.000000 0.000000 
570.000000 0.000000 
575.000000 0.000000 
580.000000 0.000000 
585.000000 0.000000 
590.000000 0.000000 
595.000000 0.000000 
600.000000 0.000065 
605.000000 0.007917 
610.000000 0.041560 
615.000000 0.187565 
620.000000 0.975987 
625.000000 0.982465 
630.000000 0.960772 
635.000000 0.950276 
640.000000 0.939569 
645.000000 0.934049 
650.000000 0.935253 
655.000000 0.936887 
660.000000 0.948125 
665.000000 0.961116 
670.000000 0.976604 
675.000000 0.992030 
680.000000 1.000000 
685.000000 0.837685 
690.000000 0.201914 
695.000000 0.056993 
700.000000 0.021484 
705.000000 0.011616 
710.000000 0.006300 
715.000000 0.000522 
720.000000 0.000000 
725.000000 0.000000 
730.000000 0.000000 
735.000000 0.000000 
740.000000 0.000000 
745.000000 0.000000 
750.000000 0.000000 
755.000000 0.000000 
760.000000 0.000000 
765.000000 0.000000 
770.000000 0.000000 
775.000000 0.000000 
780.000000 0.000000 
785.000000 0.000000 
790.000000 0.000000 
795.000000 0.000000 
800.000000 0.000000 
805.000000 0.000000 
810.000000 0.000000 
815.000000 0.000000 
820.000000 0.000000 
825.000000 0.000000 
830.000000 0.000000 
835.000000 0.000000 
840.000000 0.000000 
845.000000 0.000000 
850.000000 0.000000 
855.000000 0.000000 
860.000000 0.000000 
865.000000 0.000000 
870.000000 0.000000 
875.000000 0.000000 
880.000000 0.000000 
885.000000 0.000000 
890.000000 0.000000 
895.000000 0.000000 
900.000000 0.000000 
905.000000 0.000000 
910.000000 0.000000 
915.000000 0.000000 
920.000000 0.000000 
;;
;; BAND 4
420.000000 0.000000 
425.000000 0.000000 
430.000000 0.000000 
435.000000 0.000000 
440.000000 0.000000 
445.000000 0.000000 
450.000000 0.000000 
455.000000 0.000000 
460.000000 0.000000 
465.000000 0.000000 
470.000000 0.000000 
475.000000 0.000000 
480.000000 0.000000 
485.000000 0.000000 
490.000000 0.000000 
495.000000 0.000000 
500.000000 0.000000 
505.000000 0.000000 
510.000000 0.000000 
515.000000 0.000000 
520.000000 0.000000 
525.000000 0.000000 
530.000000 0.000000 
535.000000 0.000000 
540.000000 0.000000 
545.000000 0.000000 
550.000000 0.000000 
555.000000 0.000000 
560.000000 0.000000 
565.000000 0.000000 
570.000000 0.000000 
575.000000 0.000000 
580.000000 0.000000 
585.000000 0.000000 
590.000000 0.000000 
595.000000 0.000000 
600.000000 0.000000 
605.000000 0.000000 
610.000000 0.000000 
615.000000 0.000000 
620.000000 0.000000 
625.000000 0.000000 
630.000000 0.000000 
635.000000 0.000000 
640.000000 0.000000 
645.000000 0.000000 
650.000000 0.000000 
655.000000 0.000000 
660.000000 0.000000 
665.000000 0.000000 
670.000000 0.000000 
675.000000 0.000000 
680.000000 0.000000 
685.000000 0.000000 
690.000000 0.000000 
695.000000 0.000000 
700.000000 0.000000 
705.000000 0.000000 
710.000000 0.000000 
715.000000 0.000000 
720.000000 0.000000 
725.000000 0.000000 
730.000000 0.000000 
735.000000 0.000123 
740.000000 0.005265 
745.000000 0.014336 
750.000000 0.030327 
755.000000 0.051471 
760.000000 0.103373 
765.000000 0.282363 
770.000000 0.695441 
775.000000 1.000000 
780.000000 0.932699 
785.000000 0.854035 
790.000000 0.823080 
795.000000 0.827009 
800.000000 0.830941 
805.000000 0.836814 
810.000000 0.853611 
815.000000 0.860114 
820.000000 0.855556 
825.000000 0.867904 
830.000000 0.867007 
835.000000 0.863776 
840.000000 0.854108 
845.000000 0.838051 
850.000000 0.804612 
855.000000 0.770379 
860.000000 0.721606 
865.000000 0.656192 
870.000000 0.589744 
875.000000 0.543369 
880.000000 0.506475 
885.000000 0.315572 
890.000000 0.157839 
895.000000 0.064853 
900.000000 0.022707 
905.000000 0.006739 
910.000000 0.000000 
915.000000 0.000000 
920.000000 0.000000 