;; EN1/MERIS RSR
;;
;; converted to text file from mean RSR NetCDF Quinten Vanhellemont 2021-12-22
;;
;; source: envisat_meris_RSR.nc
;;
;;
;; datasets: wavelength, RSR
;;
;; Band M01
405.2 1.7757025e-05
405.3 6.7184104e-05
405.4 0.00019056797
405.5 0.00033690914
405.6 0.0007269462
405.7 0.0012345017
405.8 0.002053139
405.9 0.003343658
406.0 0.0053333486
406.1 0.008330321
406.2 0.012741569
406.3 0.0190836
406.4 0.027985767
406.5 0.040191364
406.6 0.056518905
406.7 0.0778306
406.8 0.104956746
406.9 0.13860215
407.0 0.17927949
407.1 0.22714576
407.2 0.28195393
407.3 0.34296092
407.4 0.40889958
407.5 0.47807562
407.6 0.5483738
407.7 0.6175079
407.8 0.6831795
407.9 0.7433194
408.0 0.7963473
408.1 0.8412502
408.2 0.87773997
408.3 0.9062037
408.4 0.9276055
408.5 0.9433126
408.6 0.95482606
408.7 0.9635722
408.8 0.97068816
408.9 0.97690696
409.0 0.98253274
409.1 0.9874974
409.2 0.99151087
409.3 0.99422824
409.4 0.9954204
409.5 0.99509436
409.6 0.99353313
409.7 0.99126285
409.8 0.98894256
409.9 0.9872123
410.0 0.98654926
410.1 0.9871513
410.2 0.9888945
410.3 0.99136585
410.4 0.99396724
410.5 0.99607146
410.6 0.9971746
410.7 0.9970226
410.8 0.99567544
410.9 0.99349415
411.0 0.9910438
411.1 0.98895854
411.2 0.9877784
411.3 0.9878184
411.4 0.98908454
411.5 0.99127984
411.6 0.9938732
411.7 0.9962375
411.8 0.9977997
411.9 0.9981928
412.0 0.9973407
412.1 0.9954764
412.2 0.9930891
412.3 0.9907968
412.4 0.9891906
412.5 0.9886905
412.6 0.98944163
412.7 0.99127185
412.8 0.99374217
412.9 0.9962535
413.0 0.99819976
413.1 0.99911386
413.2 0.9987878
413.3 0.9973276
413.4 0.99511737
413.5 0.99273103
413.6 0.99078476
413.7 0.98978466
413.8 0.9899967
413.9 0.9913869
414.0 0.99362516
414.1 0.9961695
414.2 0.9984038
414.3 0.999789
414.4 1.0
414.5 0.99900585
414.6 0.9970756
414.7 0.9947103
414.8 0.99252105
414.9 0.9910708
415.0 0.9907328
415.1 0.9916009
415.2 0.99345714
415.3 0.9958265
415.4 0.9980838
415.5 0.9996039
415.6 0.999893
415.7 0.9986928
415.8 0.99599946
415.9 0.992026
416.0 0.9870663
416.1 0.98135257
416.2 0.9748807
416.3 0.9672907
416.4 0.95781845
416.5 0.9453188
416.6 0.9284116
416.7 0.90566164
416.8 0.8758127
416.9 0.8380188
417.0 0.79197776
417.1 0.7380827
417.2 0.67737675
417.3 0.6114891
417.4 0.5424741
417.5 0.4725449
417.6 0.40395293
417.7 0.33870637
417.8 0.2784595
417.9 0.2244094
418.0 0.17722522
418.1 0.13714197
418.2 0.10396962
418.3 0.077215716
418.4 0.056179058
418.5 0.040034246
418.6 0.02794566
418.7 0.019107003
418.8 0.012796276
418.9 0.0083952295
419.0 0.0053946367
419.1 0.003395805
419.2 0.0020939042
419.3 0.0012648357
419.4 0.0007485911
419.5 0.00043400287
419.6 0.0002144511
419.7 2.6674194e-05
;;
;; Band M02
435.1 3.2410473e-05
435.2 0.00010537275
435.3 0.00018920311
435.4 0.00033302332
435.5 0.0005748328
435.6 0.00097287825
435.7 0.0016140033
435.8 0.002624698
435.9 0.0041833576
436.0 0.0065370384
436.1 0.0100137405
436.2 0.015033962
436.3 0.022122016
436.4 0.031901143
436.5 0.045096084
436.6 0.0624884
436.7 0.08486543
436.8 0.11297123
436.9 0.14740443
437.0 0.18857807
437.1 0.23656014
437.2 0.29100263
437.3 0.35112846
437.4 0.4156886
437.5 0.4830889
437.6 0.55137527
437.7 0.6184056
437.8 0.6821067
437.9 0.7406114
438.0 0.79251975
438.1 0.83692354
438.2 0.87351793
438.3 0.9026208
438.4 0.9250462
438.5 0.9419653
438.6 0.9546721
438.7 0.96440375
438.8 0.9721822
438.9 0.97870165
439.0 0.98431
439.1 0.9890513
439.2 0.99277455
439.3 0.9952787
439.4 0.9964418
439.5 0.99631375
439.6 0.99515367
439.7 0.9934026
439.8 0.99159545
439.9 0.9902494
440.0 0.98974437
440.1 0.9902364
440.2 0.9916255
440.3 0.99358356
440.4 0.9956377
440.5 0.9972918
440.6 0.9981469
440.7 0.99800485
440.8 0.9969148
440.9 0.9951647
441.0 0.9932036
441.1 0.99153346
441.2 0.9905854
441.3 0.9906064
441.4 0.99160343
441.5 0.99334055
441.6 0.99539673
441.7 0.9972708
441.8 0.9985099
441.9 0.9988169
442.0 0.9981319
442.1 0.9966368
442.2 0.99472064
442.3 0.99287355
442.4 0.99156946
442.5 0.9911444
442.6 0.9917185
442.7 0.99315757
442.8 0.9951167
442.9 0.9971178
443.0 0.99867594
443.1 0.99941593
443.2 0.99916595
443.3 0.9980019
443.4 0.99622977
443.5 0.99430263
443.6 0.9927145
443.7 0.9918735
443.8 0.9920015
443.9 0.99307656
444.0 0.9948447
444.1 0.9968748
444.2 0.9986729
444.3 0.99980396
444.4 1.0
444.5 0.99922293
444.6 0.99768084
444.7 0.99577075
444.8 0.9939786
444.9 0.99276054
445.0 0.99242353
445.1 0.99305254
445.2 0.99447966
445.3 0.9963248
445.4 0.99808085
445.5 0.99922895
445.6 0.999343
445.7 0.9981749
445.8 0.9956747
445.9 0.9919535
446.0 0.9871852
446.1 0.98148084
446.2 0.9747644
446.3 0.9666589
446.4 0.9564562
446.5 0.94313234
446.6 0.92546624
446.7 0.90220976
446.8 0.8722648
446.9 0.8348944
447.0 0.78981954
447.1 0.7373702
447.2 0.6785004
447.3 0.61466336
447.4 0.54772204
447.5 0.4796777
447.6 0.4126084
447.7 0.3484483
447.8 0.28879148
447.9 0.23483904
448.0 0.18729699
448.1 0.14648438
448.2 0.112342186
448.3 0.08447741
448.4 0.062286485
448.5 0.04501818
448.6 0.031894643
448.7 0.022153718
448.8 0.015085765
448.9 0.010072445
449.0 0.0065921517
449.1 0.0042293207
449.2 0.0026604903
449.3 0.001640985
449.4 0.0009926126
449.5 0.0005886237
449.6 0.0002998462
449.7 0.00014438924
449.8 3.3346932e-05
;;
;; Band M03
482.5 1.50911355e-05
482.6 6.45083e-05
482.7 0.00015088836
482.8 0.00026437538
482.9 0.00045447718
483.0 0.0007667745
483.1 0.0012694288
483.2 0.002062098
483.3 0.0032864339
483.4 0.0051378086
483.5 0.007881119
483.6 0.011860236
483.7 0.017509686
483.8 0.025357973
483.9 0.036019932
484.0 0.050196413
484.1 0.068623856
484.2 0.09203531
484.3 0.121092506
484.4 0.1562987
484.5 0.19796728
484.6 0.24607326
484.7 0.30022362
484.8 0.3596083
484.9 0.42299122
485.0 0.48884732
485.1 0.5553374
485.2 0.6205085
485.3 0.6824513
485.4 0.73946583
485.5 0.790288
485.6 0.8340947
485.7 0.87061095
485.8 0.9000918
485.9 0.92323124
486.0 0.94104534
486.1 0.9546632
486.2 0.9651818
486.3 0.9735194
486.4 0.9803318
486.5 0.98599213
486.6 0.9906194
486.7 0.9941676
486.8 0.9965408
486.9 0.99769586
487.0 0.99772084
487.1 0.9968578
487.2 0.9954887
487.3 0.9940596
487.4 0.99299556
487.5 0.99260455
487.6 0.9930116
487.7 0.9941356
487.8 0.99570876
487.9 0.99734783
488.0 0.9986549
488.1 0.999311
488.2 0.99915797
488.3 0.9982409
488.4 0.9967928
488.5 0.9951787
488.6 0.99380463
488.7 0.99301755
488.8 0.99301857
488.9 0.9938106
489.0 0.9952027
489.1 0.9968518
489.2 0.9983529
489.3 0.999339
489.4 0.999568
489.5 0.99898994
489.6 0.99775285
489.7 0.9961688
489.8 0.99463767
489.9 0.9935446
490.0 0.9931646
490.1 0.9935986
490.2 0.9947417
490.3 0.99631476
490.4 0.9979299
490.5 0.99919194
490.6 0.99979097
490.7 0.99958295
490.8 0.9986249
490.9 0.99716085
491.0 0.9955577
491.1 0.99421966
491.2 0.9934836
491.3 0.9935366
491.4 0.99437064
491.5 0.99578077
491.6 0.9974228
491.7 0.99889195
491.8 0.99982697
491.9 1.0
492.0 0.99937296
492.1 0.9981059
492.2 0.9965158
492.3 0.9950017
492.4 0.9939376
492.5 0.9935856
492.6 0.99402064
492.7 0.9951167
492.8 0.99656177
492.9 0.9979359
493.0 0.9987959
493.1 0.99876595
493.2 0.99760485
493.3 0.9952267
493.4 0.9916715
493.5 0.9870232
493.6 0.98131686
493.7 0.9744194
493.8 0.9659539
493.9 0.95526224
494.0 0.9414204
494.1 0.9233372
494.2 0.8998958
494.3 0.87011594
494.4 0.83333564
494.5 0.7892959
494.6 0.73828477
494.7 0.68112725
494.8 0.61913836
494.9 0.55402136
495.0 0.48762223
495.1 0.42188814
495.2 0.35863423
495.3 0.29942256
495.4 0.24546722
495.5 0.19752325
495.6 0.15598767
495.7 0.120878495
495.8 0.0919113
495.9 0.06857485
496.0 0.05019151
496.1 0.036039133
496.2 0.025385974
496.3 0.017543389
496.4 0.011895837
496.5 0.007912811
496.6 0.00516376
496.7 0.003306075
496.8 0.0020769387
496.9 0.0012805094
497.0 0.000774569
497.1 0.0004597495
497.2 0.0002370867
497.3 8.4696854e-05
;;
;; Band M04
502.5 1.5651753e-05
502.6 8.048124e-05
502.7 0.00016067385
502.8 0.00028047143
502.9 0.00048040244
503.0 0.0008076456
503.1 0.0013324366
503.2 0.0021571326
503.3 0.003426504
503.4 0.005339777
503.5 0.008165724
503.6 0.01225168
503.7 0.018035443
503.8 0.026046384
503.9 0.036900252
504.0 0.051293604
504.1 0.069954194
504.2 0.093605086
504.3 0.12289083
504.4 0.15830167
504.5 0.200128
504.6 0.24832687
504.7 0.3024912
504.8 0.36179996
504.9 0.425026
505.0 0.49064824
505.1 0.55684155
505.2 0.62168473
505.3 0.6832967
505.4 0.7400162
505.5 0.79060227
505.6 0.8342437
505.7 0.87068063
505.8 0.900158
505.9 0.92335886
506.0 0.94127333
506.1 0.9550044
506.2 0.96562326
506.3 0.9740319
506.4 0.9808795
506.5 0.9865399
506.6 0.9911393
506.7 0.99465054
506.8 0.9969938
506.9 0.99813783
507.0 0.9981769
507.1 0.99735177
507.2 0.9960357
507.3 0.99465954
507.4 0.9936355
507.5 0.9932595
507.6 0.9936515
507.7 0.9947316
507.8 0.9962407
507.9 0.99781185
508.0 0.9990599
508.1 0.99967897
508.2 0.999518
508.3 0.9986199
508.4 0.99721175
508.5 0.9956446
508.6 0.99431056
508.7 0.9935425
508.8 0.99353546
508.9 0.99429154
509.0 0.9956257
509.1 0.9972088
509.2 0.9986499
509.3 0.99959296
509.4 0.999807
509.5 0.99924093
509.6 0.99803686
509.7 0.9964977
509.8 0.9950066
509.9 0.9939375
510.0 0.9935565
510.1 0.9939615
510.2 0.9950536
510.3 0.9965627
510.4 0.99811685
510.5 0.99933296
510.6 0.99991
510.7 0.999707
510.8 0.9987779
510.9 0.9973548
511.0 0.9957927
511.1 0.9944826
511.2 0.9937515
511.3 0.9937825
511.4 0.99457055
511.5 0.9959217
511.6 0.9975018
511.7 0.9989209
511.8 0.999828
511.9 1.0
512.0 0.99939597
512.1 0.99816686
512.2 0.99661875
512.3 0.9951356
512.4 0.9940825
512.5 0.9937145
512.6 0.9941095
512.7 0.99514663
512.8 0.99652874
512.9 0.9978488
513.0 0.9986719
513.1 0.9986319
513.2 0.9974848
513.3 0.9951396
513.4 0.9916223
513.5 0.98701096
513.6 0.9813215
513.7 0.97442794
513.8 0.96595526
513.9 0.9552474
514.0 0.9414133
514.1 0.92336386
514.2 0.900021
514.3 0.87041664
514.4 0.8338567
514.5 0.7901302
514.6 0.73944914
514.7 0.6826706
514.8 0.6210637
514.9 0.5562395
515.0 0.4901182
515.1 0.42453396
515.2 0.36136892
515.3 0.30215716
515.4 0.24806985
515.5 0.19996
515.6 0.15817565
515.7 0.122806825
515.8 0.093567185
515.9 0.06994259
516.0 0.051304903
516.1 0.036915455
516.2 0.026063485
516.3 0.018055944
516.4 0.012270582
516.5 0.008183015
516.6 0.005352848
516.7 0.003436185
516.8 0.002164683
516.9 0.001337857
517.0 0.0008115539
517.1 0.00048295263
517.2 0.0002088147
517.3 0.0001212437
;;
;; Band M05
552.5 4.0549334e-05
552.6 7.239565e-05
552.7 0.00016933517
552.8 0.00029473068
552.9 0.0005036402
553.0 0.00084430864
553.1 0.0013896034
553.2 0.0022435847
553.3 0.0035546233
553.4 0.005527822
553.5 0.008432376
553.6 0.0126252575
553.7 0.018542213
553.8 0.026719304
553.9 0.037785567
554.0 0.052415844
554.1 0.07135888
554.2 0.09530312
554.3 0.12489549
554.4 0.16064864
554.5 0.20276517
554.6 0.25124907
554.7 0.30560735
554.8 0.3650349
554.9 0.4283577
555.0 0.49392062
555.1 0.5600096
555.2 0.6246255
555.3 0.68594915
555.4 0.74240154
555.5 0.79264754
555.6 0.83599216
555.7 0.8721383
555.8 0.9013741
555.9 0.9244125
556.0 0.94219255
556.1 0.9558433
556.2 0.966407
556.3 0.9747805
556.4 0.9816059
556.5 0.98723423
556.6 0.99179953
556.7 0.99526674
556.8 0.9975619
556.9 0.99866194
557.0 0.99866295
557.1 0.99781185
557.2 0.9964798
557.3 0.9950997
557.4 0.99407566
557.5 0.99370164
557.6 0.9940906
557.7 0.9951607
557.8 0.9966508
557.9 0.9981959
558.0 0.99941295
558.1 1.0
558.2 0.99980897
558.3 0.9988859
558.4 0.99745685
558.5 0.9958758
558.6 0.99452865
558.7 0.99375063
558.8 0.9937316
558.9 0.9944727
559.0 0.99578875
559.1 0.99735284
559.2 0.99877393
559.3 0.99969697
559.4 0.999893
559.5 0.99930894
559.6 0.99808687
559.7 0.9965298
559.8 0.9950187
559.9 0.99392664
560.0 0.99352163
560.1 0.9939026
560.2 0.9949727
560.3 0.9964638
560.4 0.99800587
560.5 0.99921197
560.6 0.999783
560.7 0.99957395
560.8 0.99863493
560.9 0.9971938
561.0 0.99560773
561.1 0.9942666
561.2 0.99349964
561.3 0.9934956
561.4 0.9942527
561.5 0.99558073
561.6 0.9971498
561.7 0.9985669
561.8 0.999479
561.9 0.999657
562.0 0.99905497
562.1 0.99781686
562.2 0.99624777
562.3 0.9947297
562.4 0.9936306
562.5 0.9932156
562.6 0.9935686
562.7 0.9945767
562.8 0.99594676
562.9 0.9972758
563.0 0.9981259
563.1 0.9981239
563.2 0.9970238
563.3 0.99472666
563.4 0.9912565
563.5 0.9866992
563.6 0.98107886
563.7 0.97428644
563.8 0.96596193
563.9 0.9554653
564.0 0.9419225
564.1 0.92424846
564.2 0.9013611
564.3 0.8722683
564.4 0.83624315
564.5 0.79305756
564.6 0.7428806
564.7 0.6865422
564.8 0.6252645
564.9 0.56062263
565.0 0.49456367
565.1 0.42891073
565.2 0.36556494
565.3 0.30606437
565.4 0.2515941
565.5 0.20307118
565.6 0.16085465
565.7 0.1250615
565.8 0.095418625
565.9 0.071419485
566.0 0.05246195
566.1 0.037800767
566.2 0.026727404
566.3 0.018542213
566.4 0.012617257
566.5 0.008426186
566.6 0.005519581
566.7 0.003548323
566.8 0.0022384443
566.9 0.0013851031
567.0 0.00084136246
567.1 0.00050134206
567.2 0.0002599906
567.3 4.914645e-05
;;
;; Band M06
612.6 6.296882e-05
612.7 0.00014984624
612.8 0.00026339275
612.9 0.00045438908
613.0 0.0007686897
613.1 0.0012759257
613.2 0.0020771958
613.3 0.0033167587
613.4 0.0051964195
613.5 0.007982858
613.6 0.012030602
613.7 0.017780133
613.8 0.025771433
613.9 0.036645748
614.0 0.051095232
614.1 0.06988544
614.2 0.09374333
614.3 0.12333925
614.4 0.15921794
614.5 0.20160712
614.6 0.25051278
614.7 0.3054619
614.8 0.36561942
614.9 0.42977622
615.0 0.4962162
615.1 0.56314325
615.2 0.62850213
615.3 0.6903928
615.4 0.74718004
615.5 0.7974968
615.6 0.84064007
615.7 0.87635374
615.8 0.9049849
615.9 0.92732257
616.0 0.9443928
616.1 0.9574008
616.2 0.96744853
616.3 0.97546315
616.4 0.9820837
616.5 0.98763007
616.6 0.9921864
616.7 0.9956617
616.8 0.99793285
616.9 0.9989439
617.0 0.99878293
617.1 0.9977138
617.2 0.9961437
617.3 0.9945506
617.4 0.9933805
617.5 0.99295646
617.6 0.9933985
617.7 0.9946046
617.8 0.9962807
617.9 0.99800986
618.0 0.99936193
618.1 1.0
618.2 0.99975896
618.3 0.9986949
618.4 0.99706477
618.5 0.99526864
618.6 0.99374354
618.7 0.9928635
618.8 0.99284047
618.9 0.99367654
619.0 0.9951586
619.1 0.9969178
619.2 0.9985109
619.3 0.99954194
619.4 0.999749
619.5 0.99907494
619.6 0.9976818
619.7 0.9959087
619.8 0.99418956
619.9 0.99294347
620.0 0.99247545
620.1 0.9928945
620.2 0.99409455
620.3 0.9957717
620.4 0.9975088
620.5 0.99886894
620.6 0.99951196
620.7 0.99927294
620.8 0.9982049
620.9 0.9965667
621.0 0.9947596
621.1 0.9932235
621.2 0.99233544
621.3 0.99230844
621.4 0.99314547
621.5 0.99463457
621.6 0.99640375
621.7 0.99800783
621.8 0.9990469
621.9 0.9992579
622.0 0.9985829
622.1 0.9971828
622.2 0.9953976
622.3 0.9936605
622.4 0.99239343
622.5 0.9918974
622.6 0.9922794
622.7 0.9934195
622.8 0.9949966
622.9 0.99656075
623.0 0.9976278
623.1 0.99778783
623.2 0.99677277
623.3 0.9944976
623.4 0.99101835
623.5 0.986478
623.6 0.98096657
623.7 0.9744271
623.8 0.9665375
623.9 0.95666176
624.0 0.9438948
624.1 0.9270935
624.2 0.9050779
624.3 0.87676674
624.4 0.8413371
624.5 0.79848987
624.6 0.7483661
624.7 0.69176686
624.8 0.6299583
624.9 0.5645673
625.0 0.4976223
625.1 0.43103933
625.2 0.36678052
625.3 0.306458
625.4 0.25130385
625.5 0.20226017
625.6 0.15969698
625.7 0.12371128
625.8 0.09400815
625.9 0.07005125
626.0 0.05120834
626.1 0.036705654
626.2 0.025807835
626.3 0.017796936
626.4 0.012032302
626.5 0.007980868
626.6 0.005190269
626.7 0.0033113384
626.8 0.0020722654
626.9 0.0012714354
627.0 0.00076549844
627.1 0.0004519129
627.2 0.00023275445
627.3 0.00011054929
627.4 2.3284947e-05
;;
;; Band M07
657.5 1.095247e-05
657.6 5.325667e-05
657.7 0.00012996876
657.8 0.00023092201
657.9 0.00040251494
658.0 0.00068773277
658.1 0.00115255
658.2 0.0018931885
658.3 0.0030492786
658.4 0.0048170607
658.5 0.007458698
658.6 0.011325589
658.7 0.016855177
658.8 0.024594279
658.9 0.03519203
659.0 0.04935847
659.1 0.06788353
659.2 0.09151506
659.3 0.12097329
659.4 0.15683316
659.5 0.19936237
659.6 0.24858892
659.7 0.30403182
659.8 0.36487597
659.9 0.42985836
660.0 0.49722284
660.1 0.56508636
660.2 0.63129485
660.3 0.69389707
660.4 0.75116307
660.5 0.8016947
660.6 0.8447629
660.7 0.88013375
660.8 0.90822625
660.9 0.9298943
661.0 0.9462702
661.1 0.95863783
661.2 0.96816933
661.3 0.9758337
661.4 0.9822671
661.5 0.9877654
661.6 0.99235463
661.7 0.9958828
661.8 0.9981699
661.9 0.99912095
662.0 0.99881196
662.1 0.9975219
662.2 0.9957008
662.3 0.99387467
662.4 0.9925416
662.5 0.9920596
662.6 0.9925586
662.7 0.9939207
662.8 0.99581176
662.9 0.99776286
663.0 0.999285
663.1 1.0
663.2 0.999724
663.3 0.9985199
663.4 0.9966788
663.5 0.99465173
663.6 0.99293065
663.7 0.9919386
663.8 0.99191356
663.9 0.99285865
664.0 0.9945317
664.1 0.99651784
664.2 0.9983179
664.3 0.999483
664.4 0.999718
664.5 0.99895996
664.6 0.9973879
664.7 0.99538773
664.8 0.99344563
664.9 0.99203557
665.0 0.99150157
665.1 0.9919716
665.2 0.99332166
665.3 0.99521476
665.4 0.99717784
665.5 0.99871993
665.6 0.99945295
665.7 0.999191
665.8 0.9979919
665.9 0.9961458
666.0 0.99410367
666.1 0.99236363
666.2 0.99135154
666.3 0.99131155
666.4 0.9922476
666.5 0.9939247
666.6 0.9959218
666.7 0.9977399
666.8 0.998925
666.9 0.99917793
667.0 0.99842894
667.1 0.99685585
667.2 0.9948437
667.3 0.9928796
667.4 0.9914396
667.5 0.99087054
667.6 0.99129754
667.7 0.9925906
667.8 0.9943967
667.9 0.9962158
668.0 0.9975089
668.1 0.9978239
668.2 0.9968748
668.3 0.9945837
668.4 0.99104655
668.5 0.9864633
668.6 0.98099
668.7 0.9746287
668.8 0.9670883
668.9 0.9577368
669.0 0.9456302
669.1 0.9295573
669.2 0.9082602
669.3 0.8805448
669.4 0.84550995
669.5 0.8027877
669.6 0.75249213
669.7 0.6954542
669.8 0.6329499
669.9 0.56670046
670.0 0.49880394
670.1 0.4312744
670.2 0.36616805
670.3 0.30512285
670.4 0.24943297
670.5 0.2000384
670.6 0.15731518
670.7 0.12133431
670.8 0.09175457
670.9 0.06801464
671.0 0.04943537
671.1 0.03521883
671.2 0.024602279
671.3 0.016846975
671.4 0.011306588
671.5 0.0074405367
671.6 0.0047991998
671.7 0.003035528
671.8 0.0018822479
671.9 0.0011439394
672.0 0.00068180746
672.1 0.00035311436
672.2 0.00020353559
;;
;; Band M08
675.0 1.0337186e-05
675.1 5.054214e-05
675.2 0.00011096843
675.3 0.00022027273
675.4 0.00038528527
675.5 0.0006605012
675.6 0.0011105144
675.7 0.001829889
675.8 0.0029562346
675.9 0.004683526
676.0 0.0072719227
676.1 0.011071142
676.2 0.016518356
676.3 0.024160536
676.4 0.034649234
676.5 0.0487004
676.6 0.0671124
676.7 0.09064529
676.8 0.120031126
676.9 0.15585785
677.0 0.19840808
677.1 0.24772182
677.2 0.30332506
677.3 0.3643957
677.4 0.42966166
677.5 0.4973488
677.6 0.565548
677.7 0.632075
677.8 0.69494283
677.9 0.7523942
678.0 0.803017
678.1 0.8460733
678.2 0.88133895
678.3 0.9092481
678.4 0.9306867
678.5 0.94682294
678.6 0.9589689
678.7 0.9683276
678.8 0.97587717
678.9 0.9822587
679.0 0.9877531
679.1 0.9923684
679.2 0.9959277
679.3 0.9982309
679.4 0.99916595
679.5 0.9988049
679.6 0.9974348
679.7 0.99551964
679.8 0.9936065
679.9 0.9922134
680.0 0.9917084
680.1 0.9922304
680.2 0.99365354
680.3 0.99562764
680.4 0.9976638
680.5 0.9992539
680.6 1.0
680.7 0.999712
680.8 0.9984559
680.9 0.9965357
681.0 0.9944206
681.1 0.9926254
681.2 0.99159133
681.3 0.99156636
681.4 0.9925534
681.5 0.99430156
681.6 0.9963747
681.7 0.9982549
681.8 0.99947196
681.9 0.99971896
682.0 0.9989289
682.1 0.9972888
682.2 0.99520063
682.3 0.9931695
682.4 0.9916894
682.5 0.99111634
682.6 0.9915764
682.7 0.99293244
682.8 0.9948176
682.9 0.99671173
683.0 0.99806184
683.1 0.9984019
683.2 0.9974438
683.3 0.99511665
683.4 0.9915324
683.5 0.986907
683.6 0.9814186
683.7 0.97508013
683.8 0.96760756
683.9 0.95836085
684.0 0.9463799
684.1 0.9304287
684.2 0.9092201
684.3 0.881535
684.4 0.8464543
684.5 0.8036001
684.6 0.75308824
684.7 0.6957649
684.8 0.6329331
684.9 0.56634206
685.0 0.49811786
685.1 0.4303037
685.2 0.36497274
685.3 0.30378008
685.4 0.24802285
685.5 0.1986301
685.6 0.15597086
685.7 0.120100126
685.8 0.090661794
685.9 0.0670799
686.0 0.048658997
686.1 0.03459333
686.2 0.024111833
686.3 0.016472852
686.4 0.011028938
686.5 0.00723942
686.6 0.004657174
686.7 0.0029375933
686.8 0.001816328
686.9 0.0011006336
687.0 0.0006539867
687.1 0.00038087895
687.2 0.00019429477
;;
;; Band M09
701.3 1.2840946e-05
701.4 7.554213e-05
701.5 0.00015163471
701.6 0.00026959414
701.7 0.00046959356
701.8 0.00080188876
701.9 0.0013424602
702.0 0.0022024335
702.1 0.0035430137
702.2 0.0055836416
702.3 0.008625346
702.4 0.0130601665
702.5 0.01937758
702.6 0.028186034
702.7 0.040165395
702.8 0.05609954
702.9 0.07679955
703.0 0.10303199
703.1 0.13551314
703.2 0.17466494
703.3 0.22072041
703.4 0.27349654
703.5 0.33232224
703.6 0.39617842
703.7 0.46340895
703.8 0.5321936
703.9 0.6004142
704.0 0.6658706
704.1 0.72665346
704.2 0.78103375
704.3 0.8279783
704.4 0.8669971
704.5 0.89821315
704.6 0.9223705
704.7 0.94054323
704.8 0.95409054
704.9 0.9643415
705.0 0.9724313
705.1 0.97919595
705.2 0.98507154
705.3 0.99017006
705.4 0.9943454
705.5 0.9973478
705.6 0.9989729
705.7 0.9991749
705.8 0.99813884
705.9 0.9962676
706.0 0.9941164
706.1 0.99226826
706.2 0.99121314
706.3 0.99122614
706.4 0.99231225
706.5 0.99420446
706.6 0.99643666
706.7 0.9984509
706.8 0.999747
706.9 1.0
707.0 0.99914193
707.1 0.99737674
707.2 0.9951375
707.3 0.99297035
707.4 0.9914052
707.5 0.9908241
707.6 0.99136615
707.7 0.9928913
707.8 0.99501854
707.9 0.9972177
708.0 0.9989399
708.1 0.99975395
708.2 0.99945396
708.3 0.99810684
708.4 0.9960396
708.5 0.9937584
708.6 0.9918192
708.7 0.9906991
708.8 0.9906661
708.9 0.9917262
709.0 0.9936104
709.1 0.9958516
709.2 0.9978878
709.3 0.9992119
709.4 0.999491
709.5 0.99865186
709.6 0.9968917
709.7 0.99464446
709.8 0.9924573
709.9 0.9908641
710.0 0.9902561
710.1 0.9907761
710.2 0.9922922
710.3 0.99442446
710.4 0.9966417
710.5 0.99838984
710.6 0.99923295
710.7 0.9989559
710.8 0.9976218
710.9 0.99555254
711.0 0.99325436
711.1 0.99128413
711.2 0.99012405
711.3 0.99004704
711.4 0.99105614
711.5 0.99287534
711.6 0.9950195
711.7 0.9968937
711.8 0.9979388
711.9 0.9977408
712.0 0.9961156
712.1 0.99310136
712.2 0.9889199
712.3 0.9838274
712.4 0.9779839
712.5 0.9713072
712.6 0.9633514
712.7 0.9533155
712.8 0.9400432
712.9 0.92218643
713.0 0.8984082
713.1 0.86752814
713.2 0.8288694
713.3 0.78221786
713.4 0.7280296
713.5 0.66743475
713.6 0.6019714
713.7 0.53375477
713.8 0.4648681
713.9 0.39744955
714.0 0.33346334
714.1 0.27438962
714.2 0.22144648
714.3 0.175211
714.4 0.13588418
714.5 0.10330502
714.6 0.076953165
714.7 0.05619255
714.8 0.0402084
714.9 0.028191935
715.0 0.01937338
715.1 0.013042266
715.2 0.008607275
715.3 0.0055661798
715.4 0.0035271621
715.5 0.0021908726
715.6 0.0013331793
715.7 0.0007954392
715.8 0.00046511512
715.9 0.00023788407
716.0 6.8802074e-05
;;
;; Band M10
747.6 1.5194392e-05
747.7 8.829378e-05
747.8 0.00017729808
747.9 0.0003151657
748.0 0.000548871
748.1 0.0009367406
748.2 0.0015659868
748.3 0.0025653506
748.4 0.0041182754
748.5 0.006476292
748.6 0.009978997
748.7 0.01506017
748.8 0.022269253
748.9 0.032265093
749.0 0.04579161
749.1 0.06367424
749.2 0.086727224
749.3 0.11574298
749.4 0.15136783
749.5 0.19396082
749.6 0.24359295
749.7 0.29983017
749.8 0.36185035
749.9 0.42832723
750.0 0.49742258
750.1 0.567086
750.2 0.6350061
750.3 0.69906163
750.4 0.7573622
750.5 0.80841756
750.6 0.8514456
750.7 0.88625735
750.8 0.9133798
750.9 0.93382615
751.0 0.9489166
751.1 0.9601105
751.2 0.96872485
751.3 0.975803
751.4 0.98198706
751.5 0.9875069
751.6 0.99227774
751.7 0.99601233
751.8 0.99840873
751.9 0.9992909
752.0 0.9987098
752.1 0.9969835
752.2 0.9946481
752.3 0.99234277
752.4 0.9906735
752.5 0.99007636
752.6 0.9907065
752.7 0.99241376
752.8 0.9947751
752.9 0.99720854
753.0 0.99910784
753.1 1.0
753.2 0.99965996
753.3 0.9981677
753.4 0.9958863
753.5 0.99337393
753.6 0.9912476
753.7 0.99002737
753.8 0.9900104
753.9 0.9911966
754.0 0.9932899
754.1 0.9957683
754.2 0.9980147
754.3 0.9994719
754.4 0.99977297
754.5 0.9988398
754.6 0.9968965
754.7 0.9944191
754.8 0.9920127
754.9 0.9902624
755.0 0.9895953
755.1 0.9901624
755.2 0.9918067
755.3 0.99409306
755.4 0.9964134
755.5 0.99812067
755.6 0.99867976
755.7 0.99777365
755.8 0.99535024
755.9 0.9915896
756.0 0.9868078
756.1 0.98129195
756.2 0.97514695
756.3 0.9681358
756.4 0.9596174
756.5 0.94856155
756.6 0.9336251
756.7 0.9133688
756.8 0.8864224
756.9 0.8517487
757.0 0.80886966
757.1 0.7578963
757.2 0.6996968
757.3 0.6356593
757.4 0.5676701
757.5 0.49797767
757.6 0.42878732
757.7 0.3622714
757.8 0.3001612
757.9 0.24379998
758.0 0.19411084
758.1 0.15144484
758.2 0.11579899
758.3 0.08674812
758.4 0.06365714
758.5 0.045768704
758.6 0.032233585
758.7 0.022244448
758.8 0.015037466
758.9 0.009956403
759.0 0.0064592594
759.1 0.004104663
759.2 0.0025562893
759.3 0.0015596058
759.4 0.00093200785
759.5 0.0005458275
759.6 0.0002793928
759.7 0.00012676379
;;
;; Band M11
757.6 2.5107694e-05
757.7 8.445592e-05
757.8 0.00017000243
757.9 0.00030302425
758.0 0.00052913174
758.1 0.0009054651
758.2 0.0015174416
758.3 0.002492056
758.4 0.0040100077
758.5 0.006320501
758.6 0.009760977
758.7 0.014762143
758.8 0.021874215
758.9 0.031754084
759.0 0.045151584
759.1 0.06289886
759.2 0.08581546
759.3 0.11471453
759.4 0.15024589
759.5 0.19279751
759.6 0.2424544
759.7 0.29878747
759.8 0.36099762
759.9 0.42773056
760.0 0.497168
760.1 0.5672255
760.2 0.6355628
760.3 0.7000363
760.4 0.7586988
760.5 0.810063
760.6 0.8533077
760.7 0.888241
760.8 0.9153979
760.9 0.9357995
761.0 0.9508032
761.1 0.96189016
761.2 0.9704057
761.3 0.977412
761.4 0.98354906
761.5 0.98904103
761.6 0.9937689
761.7 0.99739856
761.8 0.99956393
761.9 1.0
762.0 0.9986507
762.1 0.99568224
762.2 0.99143547
762.3 0.98627853
762.4 0.9804585
762.5 0.97394335
762.6 0.96630096
762.7 0.95668626
762.8 0.94386494
762.9 0.92639583
763.0 0.9028296
763.1 0.87192005
763.2 0.8329171
763.3 0.7855966
763.4 0.7304537
763.5 0.6686757
763.6 0.6019558
763.7 0.5324683
763.8 0.46241677
763.9 0.39403152
764.0 0.32931796
764.1 0.2698343
764.2 0.2167438
764.3 0.17060255
764.4 0.13156755
764.5 0.09941089
764.6 0.07357867
764.7 0.053359352
764.8 0.037901483
764.9 0.02636902
765.0 0.017971518
765.1 0.011996447
765.2 0.007846515
765.3 0.0050266
765.4 0.0031541346
765.5 0.0019390271
765.6 0.001167619
765.7 0.0006890593
765.8 0.0003983123
765.9 0.00015462267
766.0 2.8973685e-05
;;
;; Band M12
768.9 4.7556572e-05
769.0 0.000112113186
769.1 0.00022431837
769.2 0.00039639193
769.3 0.0006862601
769.4 0.0011641249
769.5 0.0019342512
769.6 0.0031490398
769.7 0.0050209067
769.8 0.007841983
769.9 0.011998976
770.0 0.017981013
770.1 0.026397927
770.2 0.03795307
770.3 0.053449
770.4 0.07373678
770.5 0.09963398
770.6 0.13189763
770.7 0.17103648
770.8 0.21730787
770.9 0.27057275
771.0 0.3301731
771.1 0.39503685
771.2 0.46349785
771.3 0.5336009
771.4 0.60312206
771.5 0.66973287
771.6 0.7313794
771.7 0.7862784
771.8 0.83331585
771.9 0.8720177
772.0 0.9025699
772.1 0.9258126
772.2 0.94297785
772.3 0.95555276
772.4 0.96499145
772.5 0.972515
772.6 0.97897744
772.7 0.9847929
772.8 0.98999524
772.9 0.9943406
773.0 0.9974758
773.1 0.99911696
773.2 0.9991809
773.3 0.99786186
773.4 0.9956147
773.5 0.9930745
773.6 0.99091536
773.7 0.98969626
773.8 0.9897333
773.9 0.99102235
774.0 0.9932485
774.1 0.9958607
774.2 0.9982099
774.3 0.999716
774.4 1.0
774.5 0.99898994
774.6 0.99692875
774.7 0.9943236
774.8 0.9918114
774.9 0.9900083
775.0 0.98935825
775.1 0.9900163
775.2 0.9918154
775.3 0.99431056
775.4 0.99687976
775.5 0.9988849
775.6 0.99982697
775.7 0.999469
775.8 0.9978948
775.9 0.9954877
776.0 0.99283946
776.1 0.9905983
776.2 0.9893162
776.3 0.98930323
776.4 0.9905613
776.5 0.9927745
776.6 0.99539465
776.7 0.99776787
776.8 0.999307
776.9 0.999627
777.0 0.9986429
777.1 0.9965947
777.2 0.99398357
777.3 0.99145037
777.4 0.98961526
777.5 0.9889292
777.6 0.9895582
777.7 0.99134237
777.8 0.99383754
777.9 0.99642575
778.0 0.9984609
778.1 0.99943894
778.2 0.99911195
778.3 0.99755883
778.4 0.99515563
778.5 0.99249446
778.6 0.99022627
778.7 0.9889092
778.8 0.98886317
778.9 0.9900973
779.0 0.99230146
779.1 0.99493164
779.2 0.99732983
779.3 0.9989029
779.4 0.99925697
779.5 0.99830186
779.6 0.9962657
779.7 0.99365056
779.8 0.9910964
779.9 0.9892302
780.0 0.9885092
780.1 0.9891082
780.2 0.99087536
780.3 0.99337053
780.4 0.99597573
780.5 0.99804085
780.6 0.9990549
780.7 0.99876094
780.8 0.9972288
780.9 0.9948306
781.0 0.99215645
781.1 0.98986125
781.2 0.9885092
781.3 0.98843014
781.4 0.9896392
781.5 0.9918354
781.6 0.9944736
781.7 0.99689674
781.8 0.99850386
781.9 0.9988929
782.0 0.99796486
782.1 0.9959437
782.2 0.9933245
782.3 0.9907503
782.4 0.9888522
782.5 0.9880961
782.6 0.98866516
782.7 0.9904143
782.8 0.9929095
782.9 0.9955317
783.0 0.99762684
783.1 0.9986759
783.2 0.99841386
783.3 0.99690276
783.4 0.9945096
783.5 0.9918214
783.6 0.98949623
783.7 0.98810214
783.8 0.9879731
783.9 0.9891312
784.0 0.99126834
784.1 0.99382657
784.2 0.9961207
784.3 0.9975028
784.4 0.9974998
784.5 0.9959057
784.6 0.99279547
784.7 0.9884642
784.8 0.9832768
784.9 0.97750336
785.0 0.9711469
785.1 0.96380836
785.2 0.9546627
785.3 0.9424858
785.4 0.9258066
785.5 0.90313596
785.6 0.8731567
785.7 0.83504
785.8 0.78851455
785.9 0.73400456
786.0 0.6726711
786.1 0.60616827
786.2 0.5366732
786.3 0.46644706
786.4 0.39773804
786.5 0.3326113
786.6 0.2726459
786.7 0.219055
786.8 0.1724466
786.9 0.1329897
787.0 0.10047633
787.1 0.07434533
787.2 0.053889234
787.3 0.038256694
787.4 0.026597641
787.5 0.018113323
787.6 0.012078882
787.7 0.007891036
787.8 0.0050489185
787.9 0.003163831
788.0 0.0019422218
788.1 0.0011675652
788.2 0.0006877482
788.3 0.00039681798
788.4 0.00016002268
788.5 6.056872e-05
;;
;; Band M13
852.7 5.8244408e-05
852.8 0.00012829958
852.9 0.0002572572
853.0 0.00045470856
853.1 0.0007874552
853.2 0.0013349608
853.3 0.0022167473
853.4 0.0036059634
853.5 0.0057425927
853.6 0.008957557
853.7 0.01367654
853.8 0.020448305
853.9 0.029942634
854.0 0.042920705
854.1 0.060250103
854.2 0.08278862
854.3 0.111392915
854.4 0.14678839
854.5 0.18939456
854.6 0.23936045
854.7 0.29626903
854.8 0.3592992
854.9 0.42709786
855.0 0.49771577
855.1 0.5689958
855.2 0.6384486
855.3 0.70378697
855.4 0.7629958
855.5 0.8144698
855.6 0.85740304
855.7 0.89163035
855.8 0.9177839
855.9 0.93703985
856.0 0.9508962
856.1 0.9609862
856.2 0.96876097
856.3 0.9753336
856.4 0.98134816
856.5 0.9869647
856.6 0.99197924
856.7 0.9959696
856.8 0.99851185
856.9 0.9993469
857.0 0.9985089
857.1 0.99635464
857.2 0.9935124
857.3 0.9907381
857.4 0.9887479
857.5 0.98805285
857.6 0.9888349
857.7 0.9909031
857.8 0.99374837
857.9 0.9966687
858.0 0.9989399
858.1 1.0
858.2 0.99958295
858.3 0.99779177
858.4 0.99506354
858.5 0.9920722
858.6 0.98955196
858.7 0.98812485
858.8 0.9881408
858.9 0.989594
859.0 0.99212223
859.1 0.9951015
859.2 0.9977898
859.3 0.9995229
859.4 0.999871
859.5 0.9987429
859.6 0.9964157
859.7 0.99346334
859.8 0.9906111
859.9 0.9885599
860.0 0.9878168
860.1 0.9885629
860.2 0.99061006
860.3 0.99345136
860.4 0.9963846
860.5 0.9986799
860.6 0.99977
860.7 0.99938196
860.8 0.9976098
860.9 0.9948865
861.0 0.9918852
861.1 0.989342
861.2 0.98788583
861.3 0.98787284
861.4 0.98930395
861.5 0.9918242
861.6 0.9948095
861.7 0.99751776
861.8 0.9992789
861.9 0.999657
862.0 0.9985539
862.1 0.99623865
862.2 0.99328434
862.3 0.99041504
862.4 0.9883379
862.5 0.9875648
862.6 0.9882839
862.7 0.99031603
862.8 0.9931553
862.9 0.9961016
863.0 0.99842286
863.1 0.99954194
863.2 0.9991819
863.3 0.9974288
863.4 0.9947105
863.5 0.9917002
863.6 0.9891359
863.7 0.9876508
863.8 0.9876088
863.9 0.9890179
864.0 0.99152917
864.1 0.9945195
864.2 0.99724776
864.3 0.9990369
864.4 0.99944395
864.5 0.9983658
864.6 0.9960636
864.7 0.9931073
864.8 0.99022204
864.9 0.9881188
865.0 0.9873158
865.1 0.9880098
865.2 0.99002504
865.3 0.9928633
865.4 0.9958226
865.5 0.9981668
865.6 0.9993159
865.7 0.9989839
865.8 0.9972487
865.9 0.9945375
866.0 0.9915172
866.1 0.9889319
866.2 0.98741776
866.3 0.9873478
866.4 0.9887359
866.5 0.99123716
866.6 0.9942334
866.7 0.9969797
866.8 0.9987969
866.9 0.9992339
867.0 0.99817884
867.1 0.9958896
867.2 0.9929313
867.3 0.990032
867.4 0.9879028
867.5 0.98707074
867.6 0.9877378
867.7 0.989738
867.8 0.9925743
867.9 0.99554557
868.0 0.9979128
868.1 0.9990919
868.2 0.99878687
868.3 0.9970717
868.4 0.99436545
868.5 0.9913372
868.6 0.9887309
868.7 0.98718876
868.8 0.98708975
868.9 0.98845685
869.0 0.9909491
869.1 0.9939504
869.2 0.99671465
869.3 0.9985589
869.4 0.9990239
869.5 0.9979938
869.6 0.9957176
869.7 0.9927583
869.8 0.989843
869.9 0.9876888
870.0 0.98682773
870.1 0.9874698
870.2 0.989454
870.3 0.9922872
870.4 0.99527055
870.5 0.99766177
870.6 0.9988689
870.7 0.9985909
870.8 0.9968947
870.9 0.99419445
871.0 0.9911581
871.1 0.9885309
871.2 0.98696274
871.3 0.9868357
871.4 0.9881808
871.5 0.9906631
871.6 0.9936694
871.7 0.9964517
871.8 0.99832183
871.9 0.9988159
872.0 0.9978088
872.1 0.99554455
872.2 0.9925833
872.3 0.989652
872.4 0.9874688
872.5 0.9865697
872.6 0.98716974
872.7 0.98910594
872.8 0.9918802
872.9 0.9947735
873.0 0.9970117
873.1 0.9979498
873.2 0.99720675
873.3 0.9947325
873.4 0.9907761
873.5 0.9857756
873.6 0.98016804
873.7 0.9742005
873.8 0.9677348
873.9 0.9601581
874.0 0.95039415
874.1 0.93697083
874.2 0.918275
874.3 0.8927395
874.4 0.8591272
874.5 0.816829
874.6 0.76586205
874.7 0.7071133
874.8 0.64204293
874.9 0.57264614
875.0 0.5013561
875.1 0.4305192
875.2 0.36248153
875.3 0.2990893
875.4 0.24173869
875.5 0.19139576
875.6 0.14838254
875.7 0.112664044
875.8 0.083757706
875.9 0.060951672
876.0 0.043433256
876.1 0.030295169
876.2 0.020694328
876.3 0.013839956
876.4 0.009059618
876.5 0.005807959
876.6 0.0036448073
876.7 0.0022406096
876.8 0.0013487722
876.9 0.0007948129
877.0 0.00045883795
877.1 0.00025933742
877.2 7.985943e-05
;;
;; Band M14
877.7 5.492364e-05
877.8 0.0001201989
877.9 0.00024290505
878.0 0.00043097968
878.1 0.00074904214
878.2 0.0012743662
878.3 0.0021235703
878.4 0.003465773
878.5 0.005537448
878.6 0.008664108
878.7 0.013268113
878.8 0.01989567
878.9 0.029212292
879.0 0.041984756
879.1 0.05908115
879.2 0.081372455
879.3 0.10973287
879.4 0.14489834
879.5 0.18732055
879.6 0.23715648
879.7 0.2940191
879.8 0.35710636
879.9 0.42505008
880.0 0.49591509
880.1 0.56750816
880.2 0.6373181
880.3 0.7030346
880.4 0.7625805
880.5 0.8143376
880.6 0.85746187
880.7 0.89178526
880.8 0.9179479
880.9 0.93713677
881.0 0.9508851
881.1 0.96085614
881.2 0.96853286
881.3 0.97505355
881.4 0.9810661
881.5 0.9867277
881.6 0.9918192
881.7 0.9958926
881.8 0.9985008
881.9 0.9993649
882.0 0.99850786
882.1 0.9962906
882.2 0.99335635
882.3 0.99048203
882.4 0.98840886
882.5 0.98766875
882.6 0.98845387
882.7 0.99057305
882.8 0.99350435
882.9 0.99652463
883.0 0.9988839
883.1 1.0
883.2 0.99959296
883.3 0.9977628
883.4 0.9949565
883.5 0.9918672
883.6 0.98925596
883.7 0.9877658
883.8 0.9877628
883.9 0.98924494
884.0 0.9918452
884.1 0.9949195
884.2 0.9977038
884.3 0.99950993
884.4 0.99988997
884.5 0.9987449
884.6 0.99635667
884.7 0.9933133
884.8 0.9903641
884.9 0.9882348
885.0 0.9874508
885.1 0.9882038
885.2 0.99030405
885.3 0.9932323
885.4 0.99626464
885.5 0.99864584
885.6 0.999787
885.7 0.99940395
885.8 0.99758977
885.9 0.99478745
886.0 0.9916892
886.1 0.9890579
886.2 0.98754275
886.3 0.9875138
886.4 0.9889779
886.5 0.9915712
886.6 0.9946515
886.7 0.99745274
886.8 0.9992839
886.9 0.999689
887.0 0.99856484
887.1 0.9961856
887.2 0.9931393
887.3 0.99017304
887.4 0.98801583
887.5 0.98719674
887.6 0.9879098
887.7 0.989965
887.8 0.99283427
887.9 0.9957756
888.0 0.9979998
888.1 0.9988649
888.2 0.9980048
888.3 0.9953945
888.4 0.99130917
888.5 0.98621166
888.6 0.98054606
888.7 0.9745555
888.8 0.96807784
888.9 0.9604701
889.0 0.9506111
889.1 0.93699574
889.2 0.9179839
889.3 0.8919943
889.4 0.8578149
889.5 0.8148557
889.6 0.7631965
889.7 0.7037747
889.8 0.6380992
889.9 0.56823826
890.0 0.49663717
890.1 0.42568013
890.2 0.35770142
890.3 0.29452017
890.4 0.23752451
890.5 0.18762158
890.6 0.14510736
890.7 0.10990388
890.8 0.08149107
890.9 0.059144754
891.0 0.04202826
891.1 0.029232495
891.2 0.019910872
891.3 0.013275614
891.4 0.0086639775
891.5 0.005536788
891.6 0.003463683
891.7 0.0021224902
891.8 0.0012734061
891.9 0.00074793206
892.0 0.0004302956
892.1 0.000242385
892.2 4.2250882e-05
;;
;; Band M15
892.7 5.4058426e-05
892.8 0.00013089317
892.9 0.0002375191
893.0 0.00042199425
893.1 0.0007344783
893.2 0.0012512663
893.3 0.0020877542
893.4 0.0034119573
893.5 0.005458208
893.6 0.008551075
893.7 0.013110619
893.8 0.01968163
893.9 0.02893169
894.0 0.04162477
894.1 0.05863625
894.2 0.08083792
894.3 0.10911015
894.4 0.14420341
894.5 0.18656735
894.6 0.23638298
894.7 0.29325828
894.8 0.35639414
894.9 0.4244415
895.0 0.49543208
895.1 0.5671868
895.2 0.63716424
895.3 0.70303637
895.4 0.76272696
895.5 0.81457776
895.6 0.8577558
895.7 0.892082
895.8 0.9182014
895.9 0.9373202
896.0 0.9509794
896.1 0.96086633
896.2 0.9684771
896.3 0.9749567
896.4 0.9809612
896.5 0.98663974
896.6 0.99176526
896.7 0.99587464
896.8 0.9985089
896.9 0.9993789
897.0 0.9985049
897.1 0.9962506
897.2 0.9932654
897.3 0.9903401
897.4 0.9882279
897.5 0.98746985
897.6 0.98826194
897.7 0.9904111
897.8 0.9933884
897.9 0.99645966
898.0 0.9988619
898.1 1.0
898.2 0.99959195
898.3 0.9977348
898.4 0.99488455
898.5 0.99174523
898.6 0.989089
898.7 0.9875708
898.8 0.98756284
898.9 0.98906696
899.0 0.9917072
899.1 0.9948325
899.2 0.9976638
899.3 0.99950194
899.4 0.999891
899.5 0.9987309
899.6 0.99630463
899.7 0.99321234
899.8 0.9902141
899.9 0.9880479
900.0 0.98724884
900.1 0.9880119
900.2 0.9901461
900.3 0.9931214
900.4 0.99620366
900.5 0.99862486
900.6 0.999787
900.7 0.99939895
900.8 0.9975548
900.9 0.9947075
901.0 0.9915592
901.1 0.98888296
901.2 0.98734283
901.3 0.9873128
901.4 0.98880094
901.5 0.9914362
901.6 0.9945675
901.7 0.99741477
901.8 0.9992759
901.9 0.99968696
902.0 0.99854386
902.1 0.9961246
902.2 0.99302834
902.3 0.9900141
902.4 0.9878219
902.5 0.9869908
902.6 0.98771787
902.7 0.98981005
902.8 0.99272835
902.9 0.9957206
903.0 0.99798584
903.1 0.9988719
903.2 0.9980098
903.3 0.9953766
903.4 0.9912562
903.5 0.9861237
903.6 0.9804382
903.7 0.9744526
903.8 0.96801203
903.9 0.96046835
904.0 0.9506964
904.1 0.9371722
904.2 0.9182414
904.3 0.892308
904.4 0.85813683
904.5 0.81514484
904.6 0.763398
904.7 0.70384943
904.8 0.63802636
904.9 0.5679928
905.0 0.49623916
905.1 0.42514053
905.2 0.3570582
905.3 0.29381832
905.4 0.23679203
905.5 0.18690738
905.6 0.14443444
905.7 0.109297164
905.8 0.08096693
905.9 0.058702458
906.0 0.041670475
906.1 0.028950192
906.2 0.019694831
906.3 0.01311572
906.4 0.008547945
906.5 0.0046716146
906.6 0.002935733
906.7 0.001807398
906.8 0.0010894713
906.9 0.0006427918
907.0 0.0002882698
907.1 0.00012973006
907.2 4.128924e-05
;;