;; FORMOSAT5 RSR
;;
;; FORMOSAT5 RSR from FORMOSAT presentation
;; linearly interpolated to 1 nm steps QV 2022-04-12
;;
;; datasets: wavelength, RSR
;;
;; FORMOSAT5 Band: PAN
0.3000	0.0
0.3010	0.0
0.3020	0.0
0.3030	0.0
0.3040	0.0
0.3050	0.0
0.3060	0.0
0.3070	0.0
0.3080	0.0
0.3090	0.0
0.3100	0.0
0.3110	0.0
0.3120	0.0
0.3130	0.0
0.3140	0.0
0.3150	0.0
0.3160	0.0
0.3170	0.0
0.3180	0.0
0.3190	0.0
0.3200	0.0
0.3210	0.0
0.3220	0.0
0.3230	0.0
0.3240	0.0
0.3250	0.0
0.3260	0.0
0.3270	0.0
0.3280	0.0
0.3290	0.0
0.3300	0.0
0.3310	0.0
0.3320	0.0
0.3330	0.0
0.3340	0.0
0.3350	0.0
0.3360	0.0
0.3370	0.0
0.3380	0.0
0.3390	0.0
0.3400	0.0
0.3410	0.0
0.3420	0.0
0.3430	0.0
0.3440	0.0
0.3450	0.0
0.3460	0.0
0.3470	0.0
0.3480	0.0
0.3490	0.0
0.3500	0.0
0.3510	0.0
0.3520	0.0
0.3530	0.0
0.3540	0.0
0.3550	0.0
0.3560	0.0
0.3570	0.0
0.3580	0.0
0.3590	0.0
0.3600	0.0
0.3610	0.0
0.3620	0.0
0.3630	0.0
0.3640	0.0
0.3650	0.0
0.3660	0.0
0.3670	0.0
0.3680	0.0
0.3690	0.0
0.3700	0.0
0.3710	0.0
0.3720	0.0
0.3730	0.0
0.3740	0.0
0.3750	0.0
0.3760	0.0
0.3770	0.0
0.3780	0.0
0.3790	0.0
0.3800	0.0
0.3810	0.0
0.3820	0.0
0.3830	0.0
0.3840	0.0
0.3850	0.0
0.3860	0.0
0.3870	0.0
0.3880	0.0
0.3890	0.0
0.3900	0.0
0.3910	0.0
0.3920	0.0
0.3930	0.0
0.3940	0.0
0.3950	0.0
0.3960	0.0
0.3970	0.0
0.3980	0.0
0.3990	0.0
0.4000	0.0
0.4010	0.01065786000000001
0.4020	0.02131572000000002
0.4030	0.03197358000000003
0.4040	0.04263144000000004
0.4050	0.05328930000000005
0.4060	0.06394716000000006
0.4070	0.07460501999999948
0.4080	0.0852628799999995
0.4090	0.0959207399999995
0.4100	0.10657859999999951
0.4110	0.11723645999999953
0.4120	0.12789431999999953
0.4130	0.13855217999999955
0.4140	0.14921003999999954
0.4150	0.15986789999999956
0.4160	0.17052575999999958
0.4170	0.1811836199999996
0.4180	0.1918414799999996
0.4190	0.2024993399999996
0.4200	0.21315719999999963
0.4210	0.22381505999999962
0.4220	0.23447291999999964
0.4230	0.24513077999999966
0.4240	0.2557886399999997
0.4250	0.2664464999999997
0.4260	0.27710435999999966
0.4270	0.2877622199999997
0.4280	0.2984200799999997
0.4290	0.3090779399999997
0.4300	0.31973579999999974
0.4310	0.33039365999999976
0.4320	0.3410515199999998
0.4330	0.35170937999999974
0.4340	0.36236723999999976
0.4350	0.3730250999999998
0.4360	0.3836829599999998
0.4370	0.3943408199999998
0.4380	0.40499867999999983
0.4390	0.41565653999999985
0.4400	0.4263143999999998
0.4410	0.43697225999999983
0.4420	0.44763011999999985
0.4430	0.4582879799999999
0.4440	0.4689458399999999
0.4450	0.4796036999999999
0.4460	0.4902615599999999
0.4470	0.5009194199999999
0.4480	0.5115772799999999
0.4490	0.5222351399999999
0.4500	0.532893
0.4510	0.53671594
0.4520	0.5405388799999999
0.4530	0.54436182
0.4540	0.5481847599999999
0.4550	0.5520077
0.4560	0.5558306399999999
0.4570	0.55965358
0.4580	0.56347652
0.4590	0.56729946
0.4600	0.5711224
0.4610	0.57494534
0.4620	0.57876828
0.4630	0.5825912200000001
0.4640	0.58641416
0.4650	0.5902371000000001
0.4660	0.59406004
0.4670	0.5978829800000001
0.4680	0.60170592
0.4690	0.6055288599999998
0.4700	0.6093517999999999
0.4710	0.6131747399999998
0.4720	0.6169976799999999
0.4730	0.6208206199999998
0.4740	0.6246435599999999
0.4750	0.6284664999999998
0.4760	0.6322894399999999
0.4770	0.6361123799999999
0.4780	0.6399353199999999
0.4790	0.6437582599999999
0.4800	0.6475811999999999
0.4810	0.6514041399999999
0.4820	0.65522708
0.4830	0.6590500199999999
0.4840	0.66287296
0.4850	0.6666958999999999
0.4860	0.67051884
0.4870	0.67434178
0.4880	0.6781647199999999
0.4890	0.68198766
0.4900	0.6858105999999999
0.4910	0.68963354
0.4920	0.69345648
0.4930	0.69727942
0.4940	0.7011023599999999
0.4950	0.7049253
0.4960	0.70874824
0.4970	0.71257118
0.4980	0.71639412
0.4990	0.72021706
0.5000	0.72404
0.5010	0.72619374
0.5020	0.72834748
0.5030	0.7305012200000001
0.5040	0.73265496
0.5050	0.7348087
0.5060	0.73696244
0.5070	0.73911618
0.5080	0.74126992
0.5090	0.74342366
0.5100	0.7455774000000001
0.5110	0.74773114
0.5120	0.74988488
0.5130	0.75203862
0.5140	0.75419236
0.5150	0.7563461
0.5160	0.75849984
0.5170	0.76065358
0.5180	0.7628073200000001
0.5190	0.76496106
0.5200	0.7671148
0.5210	0.76926854
0.5220	0.77142228
0.5230	0.77357602
0.5240	0.77572976
0.5250	0.7778835
0.5260	0.78003724
0.5270	0.78219098
0.5280	0.78434472
0.5290	0.78649846
0.5300	0.7886522
0.5310	0.79080594
0.5320	0.7929596800000001
0.5330	0.79511342
0.5340	0.79726716
0.5350	0.7994209
0.5360	0.80157464
0.5370	0.80372838
0.5380	0.80588212
0.5390	0.80803586
0.5400	0.8101896
0.5410	0.81234334
0.5420	0.81449708
0.5430	0.81665082
0.5440	0.81880456
0.5450	0.8209583
0.5460	0.82311204
0.5470	0.8252657800000001
0.5480	0.82741952
0.5490	0.82957326
0.5500	0.831727
0.5510	0.8315642599999999
0.5520	0.83140152
0.5530	0.83123878
0.5540	0.83107604
0.5550	0.8309133
0.5560	0.83075056
0.5570	0.83058782
0.5580	0.83042508
0.5590	0.83026234
0.5600	0.8300996
0.5610	0.82993686
0.5620	0.82977412
0.5630	0.82961138
0.5640	0.8294486400000001
0.5650	0.8292859
0.5660	0.82912316
0.5670	0.82896042
0.5680	0.82879768
0.5690	0.82863494
0.5700	0.8284722
0.5710	0.82830946
0.5720	0.82814672
0.5730	0.8279839800000001
0.5740	0.82782124
0.5750	0.8276585000000001
0.5760	0.82749576
0.5770	0.82733302
0.5780	0.82717028
0.5790	0.82700754
0.5800	0.8268448
0.5810	0.82668206
0.5820	0.8265193200000001
0.5830	0.82635658
0.5840	0.8261938400000001
0.5850	0.8260311
0.5860	0.8258683600000001
0.5870	0.82570562
0.5880	0.8255428800000001
0.5890	0.82538014
0.5900	0.8252174
0.5910	0.82505466
0.5920	0.82489192
0.5930	0.8247291800000001
0.5940	0.82456644
0.5950	0.8244037000000001
0.5960	0.82424096
0.5970	0.8240782200000001
0.5980	0.82391548
0.5990	0.8237527400000001
0.6000	0.82359
0.6010	0.8271182
0.6020	0.8306464
0.6030	0.8341746
0.6040	0.8377028000000001
0.6050	0.8412310000000001
0.6060	0.8447592
0.6070	0.8482874
0.6080	0.8518156
0.6090	0.8553438
0.6100	0.8588720000000001
0.6110	0.8624002000000001
0.6120	0.8659284
0.6130	0.8694566
0.6140	0.8729848
0.6150	0.876513
0.6160	0.8800412000000001
0.6170	0.8835694000000001
0.6180	0.8870976
0.6190	0.8906258
0.6200	0.894154
0.6210	0.8976822
0.6220	0.9012104000000001
0.6230	0.9047386000000001
0.6240	0.9082668
0.6250	0.911795
0.6260	0.9153232
0.6270	0.9188514
0.6280	0.9223796
0.6290	0.9259078000000001
0.6300	0.929436
0.6310	0.9329642
0.6320	0.9364924
0.6330	0.9400206
0.6340	0.9435488000000001
0.6350	0.9470770000000001
0.6360	0.9506052
0.6370	0.9541334
0.6380	0.9576616
0.6390	0.9611898
0.6400	0.964718
0.6410	0.9682462000000001
0.6420	0.9717744
0.6430	0.9753026
0.6440	0.9788308
0.6450	0.982359
0.6460	0.9858872
0.6470	0.9894154
0.6480	0.9929436
0.6490	0.9964718
0.6500	1.0
0.6510	0.99915574
0.6520	0.99831148
0.6530	0.99746722
0.6540	0.99662296
0.6550	0.9957787
0.6560	0.99493444
0.6570	0.99409018
0.6580	0.99324592
0.6590	0.99240166
0.6600	0.9915574
0.6610	0.99071314
0.6620	0.98986888
0.6630	0.98902462
0.6640	0.98818036
0.6650	0.9873360999999999
0.6660	0.98649184
0.6670	0.98564758
0.6680	0.98480332
0.6690	0.98395906
0.6700	0.9831148
0.6710	0.98227054
0.6720	0.98142628
0.6730	0.9805820199999999
0.6740	0.97973776
0.6750	0.9788935
0.6760	0.9780492399999999
0.6770	0.97720498
0.6780	0.97636072
0.6790	0.97551646
0.6800	0.9746722
0.6810	0.97382794
0.6820	0.97298368
0.6830	0.97213942
0.6840	0.9712951599999999
0.6850	0.9704509
0.6860	0.96960664
0.6870	0.9687623799999999
0.6880	0.9679181200000001
0.6890	0.9670738600000001
0.6900	0.9662296
0.6910	0.9653853400000001
0.6920	0.96454108
0.6930	0.96369682
0.6940	0.9628525600000001
0.6950	0.9620083
0.6960	0.9611640400000001
0.6970	0.9603197800000001
0.6980	0.95947552
0.6990	0.9586312600000001
0.7000	0.957787
0.7010	0.9386312600000001
0.7020	0.9194755200000001
0.7030	0.90031978
0.7040	0.88116404
0.7050	0.8620083000000001
0.7060	0.8428525600000001
0.7070	0.8236968200000001
0.7080	0.80454108
0.7090	0.78538534
0.7100	0.7662296000000001
0.7110	0.74707386
0.7120	0.72791812
0.7130	0.70876238
0.7140	0.68960664
0.7150	0.6704509000000001
0.7160	0.6512951600000001
0.7170	0.6321394200000001
0.7180	0.61298368
0.7190	0.59382794
0.7200	0.5746722
0.7210	0.55551646
0.7220	0.53636072
0.7230	0.51720498
0.7240	0.49804924000000006
0.7250	0.4788935
0.7260	0.45973776000000005
0.7270	0.44058202
0.7280	0.42142628000000004
0.7290	0.40227054000000007
0.7300	0.3831148
0.7310	0.36395906
0.7320	0.34480332
0.7330	0.32564758000000005
0.7340	0.30649184000000007
0.7350	0.2873361
0.7360	0.26818036
0.7370	0.24902462000000003
0.7380	0.22986888000000005
0.7390	0.21071314000000008
0.7400	0.1915574
0.7410	0.17240166
0.7420	0.15324592000000004
0.7430	0.13409018000000006
0.7440	0.11493443999999997
0.7450	0.0957787
0.7460	0.07662296000000002
0.7470	0.05746722000000004
0.7480	0.038311480000000064
0.7490	0.019155739999999977
0.7500	0.0
0.7510	0.0
0.7520	0.0
0.7530	0.0
0.7540	0.0
0.7550	0.0
0.7560	0.0
0.7570	0.0
0.7580	0.0
0.7590	0.0
0.7600	0.0
0.7610	0.0
0.7620	0.0
0.7630	0.0
0.7640	0.0
0.7650	0.0
0.7660	0.0
0.7670	0.0
0.7680	0.0
0.7690	0.0
0.7700	0.0
0.7710	0.0
0.7720	0.0
0.7730	0.0
0.7740	0.0
0.7750	0.0
0.7760	0.0
0.7770	0.0
0.7780	0.0
0.7790	0.0
0.7800	0.0
0.7810	0.0
0.7820	0.0
0.7830	0.0
0.7840	0.0
0.7850	0.0
0.7860	0.0
0.7870	0.0
0.7880	0.0
0.7890	0.0
0.7900	0.0
0.7910	0.0
0.7920	0.0
0.7930	0.0
0.7940	0.0
0.7950	0.0
0.7960	0.0
0.7970	0.0
0.7980	0.0
0.7990	0.0
0.8000	0.0
0.8010	0.0
0.8020	0.0
0.8030	0.0
0.8040	0.0
0.8050	0.0
0.8060	0.0
0.8070	0.0
0.8080	0.0
0.8090	0.0
0.8100	0.0
0.8110	0.0
0.8120	0.0
0.8130	0.0
0.8140	0.0
0.8150	0.0
0.8160	0.0
0.8170	0.0
0.8180	0.0
0.8190	0.0
0.8200	0.0
0.8210	0.0
0.8220	0.0
0.8230	0.0
0.8240	0.0
0.8250	0.0
0.8260	0.0
0.8270	0.0
0.8280	0.0
0.8290	0.0
0.8300	0.0
0.8310	0.0
0.8320	0.0
0.8330	0.0
0.8340	0.0
0.8350	0.0
0.8360	0.0
0.8370	0.0
0.8380	0.0
0.8390	0.0
0.8400	0.0
0.8410	0.0
0.8420	0.0
0.8430	0.0
0.8440	0.0
0.8450	0.0
0.8460	0.0
0.8470	0.0
0.8480	0.0
0.8490	0.0
0.8500	0.0
0.8510	0.0
0.8520	0.0
0.8530	0.0
0.8540	0.0
0.8550	0.0
0.8560	0.0
0.8570	0.0
0.8580	0.0
0.8590	0.0
0.8600	0.0
0.8610	0.0
0.8620	0.0
0.8630	0.0
0.8640	0.0
0.8650	0.0
0.8660	0.0
0.8670	0.0
0.8680	0.0
0.8690	0.0
0.8700	0.0
0.8710	0.0
0.8720	0.0
0.8730	0.0
0.8740	0.0
0.8750	0.0
0.8760	0.0
0.8770	0.0
0.8780	0.0
0.8790	0.0
0.8800	0.0
0.8810	0.0
0.8820	0.0
0.8830	0.0
0.8840	0.0
0.8850	0.0
0.8860	0.0
0.8870	0.0
0.8880	0.0
0.8890	0.0
0.8900	0.0
0.8910	0.0
0.8920	0.0
0.8930	0.0
0.8940	0.0
0.8950	0.0
0.8960	0.0
0.8970	0.0
0.8980	0.0
0.8990	0.0
0.9000	0.0
0.9010	0.0
0.9020	0.0
0.9030	0.0
0.9040	0.0
0.9050	0.0
0.9060	0.0
0.9070	0.0
0.9080	0.0
0.9090	0.0
0.9100	0.0
0.9110	0.0
0.9120	0.0
0.9130	0.0
0.9140	0.0
0.9150	0.0
0.9160	0.0
0.9170	0.0
0.9180	0.0
0.9190	0.0
0.9200	0.0
0.9210	0.0
0.9220	0.0
0.9230	0.0
0.9240	0.0
0.9250	0.0
0.9260	0.0
0.9270	0.0
0.9280	0.0
0.9290	0.0
0.9300	0.0
0.9310	0.0
0.9320	0.0
0.9330	0.0
0.9340	0.0
0.9350	0.0
0.9360	0.0
0.9370	0.0
0.9380	0.0
0.9390	0.0
0.9400	0.0
0.9410	0.0
0.9420	0.0
0.9430	0.0
0.9440	0.0
0.9450	0.0
0.9460	0.0
0.9470	0.0
0.9480	0.0
0.9490	0.0
0.9500	0.0
0.9510	0.0
0.9520	0.0
0.9530	0.0
0.9540	0.0
0.9550	0.0
0.9560	0.0
0.9570	0.0
0.9580	0.0
0.9590	0.0
0.9600	0.0
0.9610	0.0
0.9620	0.0
0.9630	0.0
0.9640	0.0
0.9650	0.0
0.9660	0.0
0.9670	0.0
0.9680	0.0
0.9690	0.0
0.9700	0.0
0.9710	0.0
0.9720	0.0
0.9730	0.0
0.9740	0.0
0.9750	0.0
0.9760	0.0
0.9770	0.0
0.9780	0.0
0.9790	0.0
0.9800	0.0
0.9810	0.0
0.9820	0.0
0.9830	0.0
0.9840	0.0
0.9850	0.0
0.9860	0.0
0.9870	0.0
0.9880	0.0
0.9890	0.0
0.9900	0.0
0.9910	0.0
0.9920	0.0
0.9930	0.0
0.9940	0.0
0.9950	0.0
0.9960	0.0
0.9970	0.0
0.9980	0.0
0.9990	0.0
1.0000	0.0
;; FORMOSAT5 Band: Blue
0.3000	0.0
0.3010	0.0
0.3020	0.0
0.3030	0.0
0.3040	0.0
0.3050	0.0
0.3060	0.0
0.3070	0.0
0.3080	0.0
0.3090	0.0
0.3100	0.0
0.3110	0.0
0.3120	0.0
0.3130	0.0
0.3140	0.0
0.3150	0.0
0.3160	0.0
0.3170	0.0
0.3180	0.0
0.3190	0.0
0.3200	0.0
0.3210	0.0
0.3220	0.0
0.3230	0.0
0.3240	0.0
0.3250	0.0
0.3260	0.0
0.3270	0.0
0.3280	0.0
0.3290	0.0
0.3300	0.0
0.3310	0.0
0.3320	0.0
0.3330	0.0
0.3340	0.0
0.3350	0.0
0.3360	0.0
0.3370	0.0
0.3380	0.0
0.3390	0.0
0.3400	0.0
0.3410	0.0
0.3420	0.0
0.3430	0.0
0.3440	0.0
0.3450	0.0
0.3460	0.0
0.3470	0.0
0.3480	0.0
0.3490	0.0
0.3500	0.0
0.3510	0.00842878
0.3520	0.01685756
0.3530	0.02528634
0.3540	0.03371512
0.3550	0.0421439
0.3560	0.05057268
0.3570	0.05900146
0.3580	0.06743024
0.3590	0.07585902
0.3600	0.0842878
0.3610	0.09271658
0.3620	0.10114536
0.3630	0.10957414
0.3640	0.11800292
0.3650	0.1264317
0.3660	0.13486048
0.3670	0.14328926
0.3680	0.15171804
0.3690	0.16014682
0.3700	0.1685756
0.3710	0.17700438
0.3720	0.18543316
0.3730	0.19386194
0.3740	0.20229072
0.3750	0.2107195
0.3760	0.21914828
0.3770	0.22757706
0.3780	0.23600584
0.3790	0.24443462
0.3800	0.2528634
0.3810	0.26129218
0.3820	0.26972096
0.3830	0.27814974
0.3840	0.28657852
0.3850	0.29500730000000003
0.3860	0.30343608
0.3870	0.31186486
0.3880	0.32029364
0.3890	0.32872242
0.3900	0.3371512
0.3910	0.34557998
0.3920	0.35400876
0.3930	0.36243754
0.3940	0.37086632
0.3950	0.3792951
0.3960	0.38772388
0.3970	0.39615266
0.3980	0.40458144
0.3990	0.41301022
0.4000	0.421439
0.4010	0.42963546
0.4020	0.43783192000000004
0.4030	0.44602838
0.4040	0.45422484
0.4050	0.46242130000000004
0.4060	0.47061776000000005
0.4070	0.4788142199999996
0.4080	0.4870106799999996
0.4090	0.4952071399999996
0.4100	0.5034035999999996
0.4110	0.5116000599999997
0.4120	0.5197965199999997
0.4130	0.5279929799999996
0.4140	0.5361894399999997
0.4150	0.5443858999999996
0.4160	0.5525823599999997
0.4170	0.5607788199999997
0.4180	0.5689752799999996
0.4190	0.5771717399999997
0.4200	0.5853681999999997
0.4210	0.5935646599999997
0.4220	0.6017611199999997
0.4230	0.6099575799999997
0.4240	0.6181540399999997
0.4250	0.6263504999999997
0.4260	0.6345469599999998
0.4270	0.6427434199999997
0.4280	0.6509398799999997
0.4290	0.6591363399999998
0.4300	0.6673327999999998
0.4310	0.6755292599999998
0.4320	0.6837257199999998
0.4330	0.6919221799999997
0.4340	0.7001186399999998
0.4350	0.7083150999999999
0.4360	0.7165115599999998
0.4370	0.7247080199999998
0.4380	0.7329044799999999
0.4390	0.7411009399999998
0.4400	0.7492973999999999
0.4410	0.7574938599999999
0.4420	0.7656903199999998
0.4430	0.7738867799999999
0.4440	0.78208324
0.4450	0.7902796999999999
0.4460	0.7984761599999999
0.4470	0.8066726199999998
0.4480	0.8148690799999999
0.4490	0.82306554
0.4500	0.831262
0.4510	0.8324949399999999
0.4520	0.83372788
0.4530	0.8349608199999999
0.4540	0.8361937599999999
0.4550	0.8374267
0.4560	0.8386596399999999
0.4570	0.83989258
0.4580	0.84112552
0.4590	0.8423584599999999
0.4600	0.8435914
0.4610	0.84482434
0.4620	0.8460572799999999
0.4630	0.84729022
0.4640	0.8485231599999999
0.4650	0.8497561
0.4660	0.85098904
0.4670	0.8522219799999999
0.4680	0.85345492
0.4690	0.8546878599999999
0.4700	0.8559207999999999
0.4710	0.8571537399999999
0.4720	0.85838668
0.4730	0.8596196199999999
0.4740	0.8608525599999999
0.4750	0.8620855
0.4760	0.8633184399999999
0.4770	0.8645513799999999
0.4780	0.8657843199999999
0.4790	0.8670172599999999
0.4800	0.8682502
0.4810	0.8694831399999999
0.4820	0.8707160799999999
0.4830	0.87194902
0.4840	0.8731819599999999
0.4850	0.8744148999999999
0.4860	0.87564784
0.4870	0.8768807799999999
0.4880	0.87811372
0.4890	0.87934666
0.4900	0.8805795999999999
0.4910	0.88181254
0.4920	0.8830454799999999
0.4930	0.8842784199999999
0.4940	0.88551136
0.4950	0.8867442999999999
0.4960	0.8879772399999999
0.4970	0.88921018
0.4980	0.8904431199999999
0.4990	0.89167606
0.5000	0.892909
0.5010	0.8950508199999999
0.5020	0.89719264
0.5030	0.89933446
0.5040	0.9014762799999999
0.5050	0.9036181
0.5060	0.9057599199999999
0.5070	0.90790174
0.5080	0.91004356
0.5090	0.9121853799999999
0.5100	0.9143272
0.5110	0.91646902
0.5120	0.9186108399999999
0.5130	0.92075266
0.5140	0.92289448
0.5150	0.9250362999999999
0.5160	0.92717812
0.5170	0.92931994
0.5180	0.9314617599999999
0.5190	0.93360358
0.5200	0.9357454
0.5210	0.93788722
0.5220	0.94002904
0.5230	0.9421708599999999
0.5240	0.94431268
0.5250	0.9464545
0.5260	0.9485963199999999
0.5270	0.95073814
0.5280	0.95287996
0.5290	0.95502178
0.5300	0.9571636
0.5310	0.95930542
0.5320	0.96144724
0.5330	0.96358906
0.5340	0.96573088
0.5350	0.9678727
0.5360	0.97001452
0.5370	0.97215634
0.5380	0.97429816
0.5390	0.97643998
0.5400	0.9785818
0.5410	0.98072362
0.5420	0.98286544
0.5430	0.9850072599999999
0.5440	0.98714908
0.5450	0.9892909
0.5460	0.99143272
0.5470	0.99357454
0.5480	0.99571636
0.5490	0.99785818
0.5500	1.0
0.5510	0.98
0.5520	0.96
0.5530	0.9399999999999998
0.5540	0.9199999999999998
0.5550	0.8999999999999998
0.5560	0.8799999999999997
0.5570	0.8599999999999997
0.5580	0.8399999999999996
0.5590	0.8199999999999996
0.5600	0.7999999999999996
0.5610	0.7799999999999995
0.5620	0.7599999999999995
0.5630	0.7400000000000015
0.5640	0.7200000000000015
0.5650	0.7000000000000015
0.5660	0.6800000000000015
0.5670	0.6600000000000015
0.5680	0.6400000000000015
0.5690	0.6200000000000013
0.5700	0.6000000000000013
0.5710	0.5800000000000012
0.5720	0.5600000000000012
0.5730	0.5400000000000011
0.5740	0.5200000000000011
0.5750	0.5000000000000011
0.5760	0.480000000000001
0.5770	0.46000000000000096
0.5780	0.44000000000000095
0.5790	0.42000000000000093
0.5800	0.4000000000000008
0.5810	0.3800000000000008
0.5820	0.36000000000000076
0.5830	0.34000000000000075
0.5840	0.3200000000000006
0.5850	0.3000000000000006
0.5860	0.2800000000000006
0.5870	0.26000000000000056
0.5880	0.24000000000000044
0.5890	0.22000000000000042
0.5900	0.2000000000000004
0.5910	0.18000000000000038
0.5920	0.16000000000000025
0.5930	0.14000000000000024
0.5940	0.12000000000000022
0.5950	0.10000000000000009
0.5960	0.08000000000000007
0.5970	0.06000000000000005
0.5980	0.040000000000000036
0.5990	0.019999999999999907
0.6000	0.0
0.6010	0.0
0.6020	0.0
0.6030	0.0
0.6040	0.0
0.6050	0.0
0.6060	0.0
0.6070	0.0
0.6080	0.0
0.6090	0.0
0.6100	0.0
0.6110	0.0
0.6120	0.0
0.6130	0.0
0.6140	0.0
0.6150	0.0
0.6160	0.0
0.6170	0.0
0.6180	0.0
0.6190	0.0
0.6200	0.0
0.6210	0.0
0.6220	0.0
0.6230	0.0
0.6240	0.0
0.6250	0.0
0.6260	0.0
0.6270	0.0
0.6280	0.0
0.6290	0.0
0.6300	0.0
0.6310	0.0
0.6320	0.0
0.6330	0.0
0.6340	0.0
0.6350	0.0
0.6360	0.0
0.6370	0.0
0.6380	0.0
0.6390	0.0
0.6400	0.0
0.6410	0.0
0.6420	0.0
0.6430	0.0
0.6440	0.0
0.6450	0.0
0.6460	0.0
0.6470	0.0
0.6480	0.0
0.6490	0.0
0.6500	0.0
0.6510	0.0
0.6520	0.0
0.6530	0.0
0.6540	0.0
0.6550	0.0
0.6560	0.0
0.6570	0.0
0.6580	0.0
0.6590	0.0
0.6600	0.0
0.6610	0.0
0.6620	0.0
0.6630	0.0
0.6640	0.0
0.6650	0.0
0.6660	0.0
0.6670	0.0
0.6680	0.0
0.6690	0.0
0.6700	0.0
0.6710	0.0
0.6720	0.0
0.6730	0.0
0.6740	0.0
0.6750	0.0
0.6760	0.0
0.6770	0.0
0.6780	0.0
0.6790	0.0
0.6800	0.0
0.6810	0.0
0.6820	0.0
0.6830	0.0
0.6840	0.0
0.6850	0.0
0.6860	0.0
0.6870	0.0
0.6880	0.0
0.6890	0.0
0.6900	0.0
0.6910	0.0
0.6920	0.0
0.6930	0.0
0.6940	0.0
0.6950	0.0
0.6960	0.0
0.6970	0.0
0.6980	0.0
0.6990	0.0
0.7000	0.0
0.7010	0.0
0.7020	0.0
0.7030	0.0
0.7040	0.0
0.7050	0.0
0.7060	0.0
0.7070	0.0
0.7080	0.0
0.7090	0.0
0.7100	0.0
0.7110	0.0
0.7120	0.0
0.7130	0.0
0.7140	0.0
0.7150	0.0
0.7160	0.0
0.7170	0.0
0.7180	0.0
0.7190	0.0
0.7200	0.0
0.7210	0.0
0.7220	0.0
0.7230	0.0
0.7240	0.0
0.7250	0.0
0.7260	0.0
0.7270	0.0
0.7280	0.0
0.7290	0.0
0.7300	0.0
0.7310	0.0
0.7320	0.0
0.7330	0.0
0.7340	0.0
0.7350	0.0
0.7360	0.0
0.7370	0.0
0.7380	0.0
0.7390	0.0
0.7400	0.0
0.7410	0.0
0.7420	0.0
0.7430	0.0
0.7440	0.0
0.7450	0.0
0.7460	0.0
0.7470	0.0
0.7480	0.0
0.7490	0.0
0.7500	0.0
0.7510	0.0
0.7520	0.0
0.7530	0.0
0.7540	0.0
0.7550	0.0
0.7560	0.0
0.7570	0.0
0.7580	0.0
0.7590	0.0
0.7600	0.0
0.7610	0.0
0.7620	0.0
0.7630	0.0
0.7640	0.0
0.7650	0.0
0.7660	0.0
0.7670	0.0
0.7680	0.0
0.7690	0.0
0.7700	0.0
0.7710	0.0
0.7720	0.0
0.7730	0.0
0.7740	0.0
0.7750	0.0
0.7760	0.0
0.7770	0.0
0.7780	0.0
0.7790	0.0
0.7800	0.0
0.7810	0.0
0.7820	0.0
0.7830	0.0
0.7840	0.0
0.7850	0.0
0.7860	0.0
0.7870	0.0
0.7880	0.0
0.7890	0.0
0.7900	0.0
0.7910	0.0
0.7920	0.0
0.7930	0.0
0.7940	0.0
0.7950	0.0
0.7960	0.0
0.7970	0.0
0.7980	0.0
0.7990	0.0
0.8000	0.0
0.8010	0.0
0.8020	0.0
0.8030	0.0
0.8040	0.0
0.8050	0.0
0.8060	0.0
0.8070	0.0
0.8080	0.0
0.8090	0.0
0.8100	0.0
0.8110	0.0
0.8120	0.0
0.8130	0.0
0.8140	0.0
0.8150	0.0
0.8160	0.0
0.8170	0.0
0.8180	0.0
0.8190	0.0
0.8200	0.0
0.8210	0.0
0.8220	0.0
0.8230	0.0
0.8240	0.0
0.8250	0.0
0.8260	0.0
0.8270	0.0
0.8280	0.0
0.8290	0.0
0.8300	0.0
0.8310	0.0
0.8320	0.0
0.8330	0.0
0.8340	0.0
0.8350	0.0
0.8360	0.0
0.8370	0.0
0.8380	0.0
0.8390	0.0
0.8400	0.0
0.8410	0.0
0.8420	0.0
0.8430	0.0
0.8440	0.0
0.8450	0.0
0.8460	0.0
0.8470	0.0
0.8480	0.0
0.8490	0.0
0.8500	0.0
0.8510	0.0
0.8520	0.0
0.8530	0.0
0.8540	0.0
0.8550	0.0
0.8560	0.0
0.8570	0.0
0.8580	0.0
0.8590	0.0
0.8600	0.0
0.8610	0.0
0.8620	0.0
0.8630	0.0
0.8640	0.0
0.8650	0.0
0.8660	0.0
0.8670	0.0
0.8680	0.0
0.8690	0.0
0.8700	0.0
0.8710	0.0
0.8720	0.0
0.8730	0.0
0.8740	0.0
0.8750	0.0
0.8760	0.0
0.8770	0.0
0.8780	0.0
0.8790	0.0
0.8800	0.0
0.8810	0.0
0.8820	0.0
0.8830	0.0
0.8840	0.0
0.8850	0.0
0.8860	0.0
0.8870	0.0
0.8880	0.0
0.8890	0.0
0.8900	0.0
0.8910	0.0
0.8920	0.0
0.8930	0.0
0.8940	0.0
0.8950	0.0
0.8960	0.0
0.8970	0.0
0.8980	0.0
0.8990	0.0
0.9000	0.0
0.9010	0.0
0.9020	0.0
0.9030	0.0
0.9040	0.0
0.9050	0.0
0.9060	0.0
0.9070	0.0
0.9080	0.0
0.9090	0.0
0.9100	0.0
0.9110	0.0
0.9120	0.0
0.9130	0.0
0.9140	0.0
0.9150	0.0
0.9160	0.0
0.9170	0.0
0.9180	0.0
0.9190	0.0
0.9200	0.0
0.9210	0.0
0.9220	0.0
0.9230	0.0
0.9240	0.0
0.9250	0.0
0.9260	0.0
0.9270	0.0
0.9280	0.0
0.9290	0.0
0.9300	0.0
0.9310	0.0
0.9320	0.0
0.9330	0.0
0.9340	0.0
0.9350	0.0
0.9360	0.0
0.9370	0.0
0.9380	0.0
0.9390	0.0
0.9400	0.0
0.9410	0.0
0.9420	0.0
0.9430	0.0
0.9440	0.0
0.9450	0.0
0.9460	0.0
0.9470	0.0
0.9480	0.0
0.9490	0.0
0.9500	0.0
0.9510	0.0
0.9520	0.0
0.9530	0.0
0.9540	0.0
0.9550	0.0
0.9560	0.0
0.9570	0.0
0.9580	0.0
0.9590	0.0
0.9600	0.0
0.9610	0.0
0.9620	0.0
0.9630	0.0
0.9640	0.0
0.9650	0.0
0.9660	0.0
0.9670	0.0
0.9680	0.0
0.9690	0.0
0.9700	0.0
0.9710	0.0
0.9720	0.0
0.9730	0.0
0.9740	0.0
0.9750	0.0
0.9760	0.0
0.9770	0.0
0.9780	0.0
0.9790	0.0
0.9800	0.0
0.9810	0.0
0.9820	0.0
0.9830	0.0
0.9840	0.0
0.9850	0.0
0.9860	0.0
0.9870	0.0
0.9880	0.0
0.9890	0.0
0.9900	0.0
0.9910	0.0
0.9920	0.0
0.9930	0.0
0.9940	0.0
0.9950	0.0
0.9960	0.0
0.9970	0.0
0.9980	0.0
0.9990	0.0
1.0000	0.0
;; FORMOSAT5 Band: Green
0.3000	0.0
0.3010	0.0
0.3020	0.0
0.3030	0.0
0.3040	0.0
0.3050	0.0
0.3060	0.0
0.3070	0.0
0.3080	0.0
0.3090	0.0
0.3100	0.0
0.3110	0.0
0.3120	0.0
0.3130	0.0
0.3140	0.0
0.3150	0.0
0.3160	0.0
0.3170	0.0
0.3180	0.0
0.3190	0.0
0.3200	0.0
0.3210	0.0
0.3220	0.0
0.3230	0.0
0.3240	0.0
0.3250	0.0
0.3260	0.0
0.3270	0.0
0.3280	0.0
0.3290	0.0
0.3300	0.0
0.3310	0.0
0.3320	0.0
0.3330	0.0
0.3340	0.0
0.3350	0.0
0.3360	0.0
0.3370	0.0
0.3380	0.0
0.3390	0.0
0.3400	0.0
0.3410	0.0
0.3420	0.0
0.3430	0.0
0.3440	0.0
0.3450	0.0
0.3460	0.0
0.3470	0.0
0.3480	0.0
0.3490	0.0
0.3500	0.0
0.3510	0.0
0.3520	0.0
0.3530	0.0
0.3540	0.0
0.3550	0.0
0.3560	0.0
0.3570	0.0
0.3580	0.0
0.3590	0.0
0.3600	0.0
0.3610	0.0
0.3620	0.0
0.3630	0.0
0.3640	0.0
0.3650	0.0
0.3660	0.0
0.3670	0.0
0.3680	0.0
0.3690	0.0
0.3700	0.0
0.3710	0.0
0.3720	0.0
0.3730	0.0
0.3740	0.0
0.3750	0.0
0.3760	0.0
0.3770	0.0
0.3780	0.0
0.3790	0.0
0.3800	0.0
0.3810	0.0
0.3820	0.0
0.3830	0.0
0.3840	0.0
0.3850	0.0
0.3860	0.0
0.3870	0.0
0.3880	0.0
0.3890	0.0
0.3900	0.0
0.3910	0.0
0.3920	0.0
0.3930	0.0
0.3940	0.0
0.3950	0.0
0.3960	0.0
0.3970	0.0
0.3980	0.0
0.3990	0.0
0.4000	0.0
0.4010	0.0
0.4020	0.0
0.4030	0.0
0.4040	0.0
0.4050	0.0
0.4060	0.0
0.4070	0.0
0.4080	0.0
0.4090	0.0
0.4100	0.0
0.4110	0.0
0.4120	0.0
0.4130	0.0
0.4140	0.0
0.4150	0.0
0.4160	0.0
0.4170	0.0
0.4180	0.0
0.4190	0.0
0.4200	0.0
0.4210	0.0
0.4220	0.0
0.4230	0.0
0.4240	0.0
0.4250	0.0
0.4260	0.0
0.4270	0.0
0.4280	0.0
0.4290	0.0
0.4300	0.0
0.4310	0.0
0.4320	0.0
0.4330	0.0
0.4340	0.0
0.4350	0.0
0.4360	0.0
0.4370	0.0
0.4380	0.0
0.4390	0.0
0.4400	0.0
0.4410	0.0
0.4420	0.0
0.4430	0.0
0.4440	0.0
0.4450	0.0
0.4460	0.0
0.4470	0.0
0.4480	0.0
0.4490	0.0
0.4500	0.0
0.4510	0.01640478000000002
0.4520	0.03280956000000004
0.4530	0.049214340000000065
0.4540	0.06561912000000009
0.4550	0.08202390000000011
0.4560	0.09842868000000013
0.4570	0.11483346000000014
0.4580	0.13123824000000017
0.4590	0.14764302000000018
0.4600	0.16404780000000022
0.4610	0.18045258000000022
0.4620	0.19685736000000026
0.4630	0.21326214000000027
0.4640	0.22966692000000027
0.4650	0.2460717000000003
0.4660	0.26247648000000035
0.4670	0.27888126000000035
0.4680	0.29528604000000036
0.4690	0.3116908199999995
0.4700	0.3280955999999995
0.4710	0.3445003799999995
0.4720	0.36090515999999956
0.4730	0.37730993999999957
0.4740	0.3937147199999996
0.4750	0.4101194999999996
0.4760	0.42652427999999964
0.4770	0.44292905999999965
0.4780	0.45933383999999966
0.4790	0.47573861999999967
0.4800	0.49214339999999973
0.4810	0.5085481799999997
0.4820	0.5249529599999997
0.4830	0.5413577399999998
0.4840	0.5577625199999998
0.4850	0.5741672999999998
0.4860	0.5905720799999998
0.4870	0.6069768599999998
0.4880	0.6233816399999998
0.4890	0.6397864199999999
0.4900	0.6561911999999999
0.4910	0.67259598
0.4920	0.68900076
0.4930	0.70540554
0.4940	0.72181032
0.4950	0.7382151
0.4960	0.75461988
0.4970	0.77102466
0.4980	0.78742944
0.4990	0.80383422
0.5000	0.820239
0.5010	0.82135532
0.5020	0.8224716400000001
0.5030	0.82358796
0.5040	0.8247042800000001
0.5050	0.8258206
0.5060	0.8269369200000001
0.5070	0.82805324
0.5080	0.8291695600000001
0.5090	0.83028588
0.5100	0.8314022000000001
0.5110	0.83251852
0.5120	0.8336348400000001
0.5130	0.83475116
0.5140	0.83586748
0.5150	0.8369838000000001
0.5160	0.83810012
0.5170	0.8392164400000001
0.5180	0.84033276
0.5190	0.8414490800000001
0.5200	0.8425654
0.5210	0.8436817200000001
0.5220	0.84479804
0.5230	0.8459143600000001
0.5240	0.84703068
0.5250	0.8481470000000001
0.5260	0.84926332
0.5270	0.85037964
0.5280	0.85149596
0.5290	0.85261228
0.5300	0.8537286000000001
0.5310	0.85484492
0.5320	0.8559612400000001
0.5330	0.85707756
0.5340	0.8581938800000001
0.5350	0.8593102
0.5360	0.8604265200000001
0.5370	0.86154284
0.5380	0.86265916
0.5390	0.86377548
0.5400	0.8648918
0.5410	0.86600812
0.5420	0.86712444
0.5430	0.8682407600000001
0.5440	0.86935708
0.5450	0.8704734000000001
0.5460	0.87158972
0.5470	0.8727060400000001
0.5480	0.87382236
0.5490	0.8749386800000001
0.5500	0.876055
0.5510	0.8785339
0.5520	0.8810128
0.5530	0.8834917
0.5540	0.8859706
0.5550	0.8884495
0.5560	0.8909284000000001
0.5570	0.8934073
0.5580	0.8958862000000001
0.5590	0.8983651
0.5600	0.9008440000000001
0.5610	0.9033229
0.5620	0.9058018000000001
0.5630	0.9082806999999998
0.5640	0.9107595999999998
0.5650	0.9132384999999998
0.5660	0.9157173999999998
0.5670	0.9181962999999999
0.5680	0.9206751999999998
0.5690	0.9231540999999999
0.5700	0.9256329999999998
0.5710	0.9281118999999999
0.5720	0.9305907999999998
0.5730	0.9330696999999999
0.5740	0.9355485999999998
0.5750	0.9380274999999999
0.5760	0.9405063999999999
0.5770	0.9429852999999999
0.5780	0.9454641999999999
0.5790	0.9479430999999999
0.5800	0.9504219999999999
0.5810	0.9529008999999999
0.5820	0.9553797999999999
0.5830	0.9578587
0.5840	0.9603375999999999
0.5850	0.9628165
0.5860	0.9652953999999999
0.5870	0.9677743
0.5880	0.9702531999999999
0.5890	0.9727321
0.5900	0.9752109999999999
0.5910	0.9776898999999999
0.5920	0.9801688
0.5930	0.9826477
0.5940	0.9851266
0.5950	0.9876054999999999
0.5960	0.9900844
0.5970	0.9925633
0.5980	0.9950422
0.5990	0.9975210999999999
0.6000	1.0
0.6010	0.99794758
0.6020	0.99589516
0.6030	0.9938427400000001
0.6040	0.99179032
0.6050	0.9897379
0.6060	0.98768548
0.6070	0.9856330600000001
0.6080	0.98358064
0.6090	0.98152822
0.6100	0.9794758
0.6110	0.9774233800000001
0.6120	0.97537096
0.6130	0.97331854
0.6140	0.97126612
0.6150	0.9692137000000001
0.6160	0.96716128
0.6170	0.96510886
0.6180	0.96305644
0.6190	0.9610040200000001
0.6200	0.9589516
0.6210	0.95689918
0.6220	0.95484676
0.6230	0.9527943400000001
0.6240	0.95074192
0.6250	0.9486895
0.6260	0.94663708
0.6270	0.9445846600000001
0.6280	0.94253224
0.6290	0.94047982
0.6300	0.9384274
0.6310	0.9363749800000001
0.6320	0.93432256
0.6330	0.93227014
0.6340	0.93021772
0.6350	0.9281653000000001
0.6360	0.92611288
0.6370	0.92406046
0.6380	0.92200804
0.6390	0.9199556200000001
0.6400	0.9179032
0.6410	0.91585078
0.6420	0.91379836
0.6430	0.9117459400000001
0.6440	0.90969352
0.6450	0.9076411
0.6460	0.90558868
0.6470	0.9035362600000001
0.6480	0.90148384
0.6490	0.89943142
0.6500	0.897379
0.6510	0.87943142
0.6520	0.86148384
0.6530	0.8435362599999999
0.6540	0.8255886799999999
0.6550	0.8076410999999999
0.6560	0.7896935199999998
0.6570	0.7717459399999997
0.6580	0.7537983599999998
0.6590	0.7358507799999997
0.6600	0.7179031999999996
0.6610	0.6999556199999997
0.6620	0.6820080399999996
0.6630	0.6640604599999995
0.6640	0.6461128799999996
0.6650	0.6281652999999994
0.6660	0.6102177199999994
0.6670	0.5922701399999994
0.6680	0.5743225599999993
0.6690	0.5563749799999993
0.6700	0.5384273999999992
0.6710	0.5204798199999991
0.6720	0.5025322399999992
0.6730	0.4845846599999991
0.6740	0.4666370799999991
0.6750	0.4486894999999991
0.6760	0.430741919999999
0.6770	0.412794339999999
0.6780	0.39484675999999896
0.6790	0.3768991799999989
0.6800	0.3589515999999988
0.6810	0.34100401999999885
0.6820	0.3230564399999988
0.6830	0.3051088599999987
0.6840	0.28716127999999874
0.6850	0.26921369999999867
0.6860	0.2512661199999986
0.6870	0.23331853999999863
0.6880	0.21537096000000056
0.6890	0.19742338000000048
0.6900	0.1794758000000004
0.6910	0.16152822000000044
0.6920	0.14358064000000037
0.6930	0.1256330600000003
0.6940	0.10768548000000033
0.6950	0.08973790000000026
0.6960	0.07179032000000019
0.6970	0.05384274000000022
0.6980	0.03589516000000015
0.6990	0.017947580000000074
0.7000	0.0
0.7010	0.0
0.7020	0.0
0.7030	0.0
0.7040	0.0
0.7050	0.0
0.7060	0.0
0.7070	0.0
0.7080	0.0
0.7090	0.0
0.7100	0.0
0.7110	0.0
0.7120	0.0
0.7130	0.0
0.7140	0.0
0.7150	0.0
0.7160	0.0
0.7170	0.0
0.7180	0.0
0.7190	0.0
0.7200	0.0
0.7210	0.0
0.7220	0.0
0.7230	0.0
0.7240	0.0
0.7250	0.0
0.7260	0.0
0.7270	0.0
0.7280	0.0
0.7290	0.0
0.7300	0.0
0.7310	0.0
0.7320	0.0
0.7330	0.0
0.7340	0.0
0.7350	0.0
0.7360	0.0
0.7370	0.0
0.7380	0.0
0.7390	0.0
0.7400	0.0
0.7410	0.0
0.7420	0.0
0.7430	0.0
0.7440	0.0
0.7450	0.0
0.7460	0.0
0.7470	0.0
0.7480	0.0
0.7490	0.0
0.7500	0.0
0.7510	0.0
0.7520	0.0
0.7530	0.0
0.7540	0.0
0.7550	0.0
0.7560	0.0
0.7570	0.0
0.7580	0.0
0.7590	0.0
0.7600	0.0
0.7610	0.0
0.7620	0.0
0.7630	0.0
0.7640	0.0
0.7650	0.0
0.7660	0.0
0.7670	0.0
0.7680	0.0
0.7690	0.0
0.7700	0.0
0.7710	0.0
0.7720	0.0
0.7730	0.0
0.7740	0.0
0.7750	0.0
0.7760	0.0
0.7770	0.0
0.7780	0.0
0.7790	0.0
0.7800	0.0
0.7810	0.0
0.7820	0.0
0.7830	0.0
0.7840	0.0
0.7850	0.0
0.7860	0.0
0.7870	0.0
0.7880	0.0
0.7890	0.0
0.7900	0.0
0.7910	0.0
0.7920	0.0
0.7930	0.0
0.7940	0.0
0.7950	0.0
0.7960	0.0
0.7970	0.0
0.7980	0.0
0.7990	0.0
0.8000	0.0
0.8010	0.0
0.8020	0.0
0.8030	0.0
0.8040	0.0
0.8050	0.0
0.8060	0.0
0.8070	0.0
0.8080	0.0
0.8090	0.0
0.8100	0.0
0.8110	0.0
0.8120	0.0
0.8130	0.0
0.8140	0.0
0.8150	0.0
0.8160	0.0
0.8170	0.0
0.8180	0.0
0.8190	0.0
0.8200	0.0
0.8210	0.0
0.8220	0.0
0.8230	0.0
0.8240	0.0
0.8250	0.0
0.8260	0.0
0.8270	0.0
0.8280	0.0
0.8290	0.0
0.8300	0.0
0.8310	0.0
0.8320	0.0
0.8330	0.0
0.8340	0.0
0.8350	0.0
0.8360	0.0
0.8370	0.0
0.8380	0.0
0.8390	0.0
0.8400	0.0
0.8410	0.0
0.8420	0.0
0.8430	0.0
0.8440	0.0
0.8450	0.0
0.8460	0.0
0.8470	0.0
0.8480	0.0
0.8490	0.0
0.8500	0.0
0.8510	0.0
0.8520	0.0
0.8530	0.0
0.8540	0.0
0.8550	0.0
0.8560	0.0
0.8570	0.0
0.8580	0.0
0.8590	0.0
0.8600	0.0
0.8610	0.0
0.8620	0.0
0.8630	0.0
0.8640	0.0
0.8650	0.0
0.8660	0.0
0.8670	0.0
0.8680	0.0
0.8690	0.0
0.8700	0.0
0.8710	0.0
0.8720	0.0
0.8730	0.0
0.8740	0.0
0.8750	0.0
0.8760	0.0
0.8770	0.0
0.8780	0.0
0.8790	0.0
0.8800	0.0
0.8810	0.0
0.8820	0.0
0.8830	0.0
0.8840	0.0
0.8850	0.0
0.8860	0.0
0.8870	0.0
0.8880	0.0
0.8890	0.0
0.8900	0.0
0.8910	0.0
0.8920	0.0
0.8930	0.0
0.8940	0.0
0.8950	0.0
0.8960	0.0
0.8970	0.0
0.8980	0.0
0.8990	0.0
0.9000	0.0
0.9010	0.0
0.9020	0.0
0.9030	0.0
0.9040	0.0
0.9050	0.0
0.9060	0.0
0.9070	0.0
0.9080	0.0
0.9090	0.0
0.9100	0.0
0.9110	0.0
0.9120	0.0
0.9130	0.0
0.9140	0.0
0.9150	0.0
0.9160	0.0
0.9170	0.0
0.9180	0.0
0.9190	0.0
0.9200	0.0
0.9210	0.0
0.9220	0.0
0.9230	0.0
0.9240	0.0
0.9250	0.0
0.9260	0.0
0.9270	0.0
0.9280	0.0
0.9290	0.0
0.9300	0.0
0.9310	0.0
0.9320	0.0
0.9330	0.0
0.9340	0.0
0.9350	0.0
0.9360	0.0
0.9370	0.0
0.9380	0.0
0.9390	0.0
0.9400	0.0
0.9410	0.0
0.9420	0.0
0.9430	0.0
0.9440	0.0
0.9450	0.0
0.9460	0.0
0.9470	0.0
0.9480	0.0
0.9490	0.0
0.9500	0.0
0.9510	0.0
0.9520	0.0
0.9530	0.0
0.9540	0.0
0.9550	0.0
0.9560	0.0
0.9570	0.0
0.9580	0.0
0.9590	0.0
0.9600	0.0
0.9610	0.0
0.9620	0.0
0.9630	0.0
0.9640	0.0
0.9650	0.0
0.9660	0.0
0.9670	0.0
0.9680	0.0
0.9690	0.0
0.9700	0.0
0.9710	0.0
0.9720	0.0
0.9730	0.0
0.9740	0.0
0.9750	0.0
0.9760	0.0
0.9770	0.0
0.9780	0.0
0.9790	0.0
0.9800	0.0
0.9810	0.0
0.9820	0.0
0.9830	0.0
0.9840	0.0
0.9850	0.0
0.9860	0.0
0.9870	0.0
0.9880	0.0
0.9890	0.0
0.9900	0.0
0.9910	0.0
0.9920	0.0
0.9930	0.0
0.9940	0.0
0.9950	0.0
0.9960	0.0
0.9970	0.0
0.9980	0.0
0.9990	0.0
1.0000	0.0
;; FORMOSAT5 Band: Red
0.3000	0.0
0.3010	0.0
0.3020	0.0
0.3030	0.0
0.3040	0.0
0.3050	0.0
0.3060	0.0
0.3070	0.0
0.3080	0.0
0.3090	0.0
0.3100	0.0
0.3110	0.0
0.3120	0.0
0.3130	0.0
0.3140	0.0
0.3150	0.0
0.3160	0.0
0.3170	0.0
0.3180	0.0
0.3190	0.0
0.3200	0.0
0.3210	0.0
0.3220	0.0
0.3230	0.0
0.3240	0.0
0.3250	0.0
0.3260	0.0
0.3270	0.0
0.3280	0.0
0.3290	0.0
0.3300	0.0
0.3310	0.0
0.3320	0.0
0.3330	0.0
0.3340	0.0
0.3350	0.0
0.3360	0.0
0.3370	0.0
0.3380	0.0
0.3390	0.0
0.3400	0.0
0.3410	0.0
0.3420	0.0
0.3430	0.0
0.3440	0.0
0.3450	0.0
0.3460	0.0
0.3470	0.0
0.3480	0.0
0.3490	0.0
0.3500	0.0
0.3510	0.0
0.3520	0.0
0.3530	0.0
0.3540	0.0
0.3550	0.0
0.3560	0.0
0.3570	0.0
0.3580	0.0
0.3590	0.0
0.3600	0.0
0.3610	0.0
0.3620	0.0
0.3630	0.0
0.3640	0.0
0.3650	0.0
0.3660	0.0
0.3670	0.0
0.3680	0.0
0.3690	0.0
0.3700	0.0
0.3710	0.0
0.3720	0.0
0.3730	0.0
0.3740	0.0
0.3750	0.0
0.3760	0.0
0.3770	0.0
0.3780	0.0
0.3790	0.0
0.3800	0.0
0.3810	0.0
0.3820	0.0
0.3830	0.0
0.3840	0.0
0.3850	0.0
0.3860	0.0
0.3870	0.0
0.3880	0.0
0.3890	0.0
0.3900	0.0
0.3910	0.0
0.3920	0.0
0.3930	0.0
0.3940	0.0
0.3950	0.0
0.3960	0.0
0.3970	0.0
0.3980	0.0
0.3990	0.0
0.4000	0.0
0.4010	0.0
0.4020	0.0
0.4030	0.0
0.4040	0.0
0.4050	0.0
0.4060	0.0
0.4070	0.0
0.4080	0.0
0.4090	0.0
0.4100	0.0
0.4110	0.0
0.4120	0.0
0.4130	0.0
0.4140	0.0
0.4150	0.0
0.4160	0.0
0.4170	0.0
0.4180	0.0
0.4190	0.0
0.4200	0.0
0.4210	0.0
0.4220	0.0
0.4230	0.0
0.4240	0.0
0.4250	0.0
0.4260	0.0
0.4270	0.0
0.4280	0.0
0.4290	0.0
0.4300	0.0
0.4310	0.0
0.4320	0.0
0.4330	0.0
0.4340	0.0
0.4350	0.0
0.4360	0.0
0.4370	0.0
0.4380	0.0
0.4390	0.0
0.4400	0.0
0.4410	0.0
0.4420	0.0
0.4430	0.0
0.4440	0.0
0.4450	0.0
0.4460	0.0
0.4470	0.0
0.4480	0.0
0.4490	0.0
0.4500	0.0
0.4510	0.0
0.4520	0.0
0.4530	0.0
0.4540	0.0
0.4550	0.0
0.4560	0.0
0.4570	0.0
0.4580	0.0
0.4590	0.0
0.4600	0.0
0.4610	0.0
0.4620	0.0
0.4630	0.0
0.4640	0.0
0.4650	0.0
0.4660	0.0
0.4670	0.0
0.4680	0.0
0.4690	0.0
0.4700	0.0
0.4710	0.0
0.4720	0.0
0.4730	0.0
0.4740	0.0
0.4750	0.0
0.4760	0.0
0.4770	0.0
0.4780	0.0
0.4790	0.0
0.4800	0.0
0.4810	0.0
0.4820	0.0
0.4830	0.0
0.4840	0.0
0.4850	0.0
0.4860	0.0
0.4870	0.0
0.4880	0.0
0.4890	0.0
0.4900	0.0
0.4910	0.0
0.4920	0.0
0.4930	0.0
0.4940	0.0
0.4950	0.0
0.4960	0.0
0.4970	0.0
0.4980	0.0
0.4990	0.0
0.5000	0.0
0.5010	0.0
0.5020	0.0
0.5030	0.0
0.5040	0.0
0.5050	0.0
0.5060	0.0
0.5070	0.0
0.5080	0.0
0.5090	0.0
0.5100	0.0
0.5110	0.0
0.5120	0.0
0.5130	0.0
0.5140	0.0
0.5150	0.0
0.5160	0.0
0.5170	0.0
0.5180	0.0
0.5190	0.0
0.5200	0.0
0.5210	0.0
0.5220	0.0
0.5230	0.0
0.5240	0.0
0.5250	0.0
0.5260	0.0
0.5270	0.0
0.5280	0.0
0.5290	0.0
0.5300	0.0
0.5310	0.0
0.5320	0.0
0.5330	0.0
0.5340	0.0
0.5350	0.0
0.5360	0.0
0.5370	0.0
0.5380	0.0
0.5390	0.0
0.5400	0.0
0.5410	0.0
0.5420	0.0
0.5430	0.0
0.5440	0.0
0.5450	0.0
0.5460	0.0
0.5470	0.0
0.5480	0.0
0.5490	0.0
0.5500	0.0
0.5510	0.020000000000000046
0.5520	0.04000000000000009
0.5530	0.06000000000000014
0.5540	0.08000000000000018
0.5550	0.10000000000000023
0.5560	0.12000000000000027
0.5570	0.14000000000000032
0.5580	0.16000000000000036
0.5590	0.1800000000000004
0.5600	0.20000000000000046
0.5610	0.2200000000000005
0.5620	0.24000000000000055
0.5630	0.2599999999999984
0.5640	0.2799999999999984
0.5650	0.2999999999999985
0.5660	0.3199999999999985
0.5670	0.3399999999999986
0.5680	0.3599999999999986
0.5690	0.37999999999999867
0.5700	0.3999999999999987
0.5710	0.41999999999999876
0.5720	0.4399999999999988
0.5730	0.45999999999999885
0.5740	0.47999999999999887
0.5750	0.49999999999999895
0.5760	0.519999999999999
0.5770	0.539999999999999
0.5780	0.559999999999999
0.5790	0.5799999999999991
0.5800	0.5999999999999992
0.5810	0.6199999999999992
0.5820	0.6399999999999992
0.5830	0.6599999999999993
0.5840	0.6799999999999994
0.5850	0.6999999999999994
0.5860	0.7199999999999994
0.5870	0.7399999999999994
0.5880	0.7599999999999996
0.5890	0.7799999999999996
0.5900	0.7999999999999996
0.5910	0.8199999999999996
0.5920	0.8399999999999997
0.5930	0.8599999999999998
0.5940	0.8799999999999998
0.5950	0.8999999999999999
0.5960	0.9199999999999999
0.5970	0.94
0.5980	0.96
0.5990	0.9800000000000001
0.6000	1.0
0.6010	0.99874356
0.6020	0.99748712
0.6030	0.99623068
0.6040	0.99497424
0.6050	0.9937178
0.6060	0.99246136
0.6070	0.99120492
0.6080	0.98994848
0.6090	0.98869204
0.6100	0.9874356
0.6110	0.9861791599999999
0.6120	0.98492272
0.6130	0.98366628
0.6140	0.98240984
0.6150	0.9811534
0.6160	0.97989696
0.6170	0.97864052
0.6180	0.97738408
0.6190	0.97612764
0.6200	0.9748711999999999
0.6210	0.97361476
0.6220	0.97235832
0.6230	0.97110188
0.6240	0.96984544
0.6250	0.9685889999999999
0.6260	0.96733256
0.6270	0.96607612
0.6280	0.96481968
0.6290	0.9635632399999999
0.6300	0.9623068
0.6310	0.96105036
0.6320	0.95979392
0.6330	0.9585374799999999
0.6340	0.95728104
0.6350	0.9560246
0.6360	0.95476816
0.6370	0.95351172
0.6380	0.9522552799999999
0.6390	0.95099884
0.6400	0.9497424
0.6410	0.94848596
0.6420	0.9472295199999999
0.6430	0.9459730799999999
0.6440	0.94471664
0.6450	0.9434602
0.6460	0.94220376
0.6470	0.9409473199999999
0.6480	0.93969088
0.6490	0.93843444
0.6500	0.937178
0.6510	0.93715094
0.6520	0.9371238799999999
0.6530	0.9370968199999999
0.6540	0.93706976
0.6550	0.9370427
0.6560	0.9370156399999999
0.6570	0.93698858
0.6580	0.93696152
0.6590	0.9369344599999999
0.6600	0.9369074
0.6610	0.93688034
0.6620	0.93685328
0.6630	0.9368262199999999
0.6640	0.93679916
0.6650	0.9367721
0.6660	0.93674504
0.6670	0.93671798
0.6680	0.93669092
0.6690	0.93666386
0.6700	0.9366367999999999
0.6710	0.93660974
0.6720	0.93658268
0.6730	0.93655562
0.6740	0.93652856
0.6750	0.9365015
0.6760	0.93647444
0.6770	0.9364473799999999
0.6780	0.93642032
0.6790	0.93639326
0.6800	0.9363662
0.6810	0.93633914
0.6820	0.93631208
0.6830	0.93628502
0.6840	0.93625796
0.6850	0.9362309
0.6860	0.93620384
0.6870	0.93617678
0.6880	0.93614972
0.6890	0.93612266
0.6900	0.9360956
0.6910	0.9360685400000001
0.6920	0.93604148
0.6930	0.93601442
0.6940	0.93598736
0.6950	0.9359603
0.6960	0.93593324
0.6970	0.93590618
0.6980	0.9358791200000001
0.6990	0.93585206
0.7000	0.935825
0.7010	0.9341283
0.7020	0.9324316
0.7030	0.9307349
0.7040	0.9290382
0.7050	0.9273415
0.7060	0.9256448
0.7070	0.9239481
0.7080	0.9222514
0.7090	0.9205547000000001
0.7100	0.9188580000000001
0.7110	0.9171613000000001
0.7120	0.9154646000000001
0.7130	0.9137679000000001
0.7140	0.9120712
0.7150	0.9103745
0.7160	0.9086778
0.7170	0.9069811
0.7180	0.9052844
0.7190	0.9035877
0.7200	0.901891
0.7210	0.9001943
0.7220	0.8984976
0.7230	0.8968009
0.7240	0.8951042
0.7250	0.8934075
0.7260	0.8917108
0.7270	0.8900141
0.7280	0.8883174
0.7290	0.8866207
0.7300	0.884924
0.7310	0.8832273
0.7320	0.8815306
0.7330	0.8798339000000001
0.7340	0.8781372000000001
0.7350	0.8764405000000001
0.7360	0.8747438000000001
0.7370	0.8730471
0.7380	0.8713504000000001
0.7390	0.8696537
0.7400	0.867957
0.7410	0.8662603
0.7420	0.8645636
0.7430	0.8628669
0.7440	0.8611702
0.7450	0.8594735
0.7460	0.8577768
0.7470	0.8560801
0.7480	0.8543834
0.7490	0.8526867
0.7500	0.85099
0.7510	0.8339702
0.7520	0.8169504000000001
0.7530	0.7999306
0.7540	0.7829108
0.7550	0.765891
0.7560	0.7488712
0.7570	0.7318514
0.7580	0.7148316
0.7590	0.6978118
0.7600	0.6807920000000001
0.7610	0.6637722
0.7620	0.6467524
0.7630	0.6297326
0.7640	0.6127128
0.7650	0.595693
0.7660	0.5786732
0.7670	0.5616534
0.7680	0.5446336
0.7690	0.5276138
0.7700	0.510594
0.7710	0.4935742
0.7720	0.4765544
0.7730	0.4595346
0.7740	0.4425148
0.7750	0.425495
0.7760	0.4084752
0.7770	0.3914554
0.7780	0.3744356
0.7790	0.3574158
0.7800	0.34039600000000003
0.7810	0.3233762
0.7820	0.3063564
0.7830	0.28933659999999994
0.7840	0.2723168
0.7850	0.255297
0.7860	0.23827719999999997
0.7870	0.22125739999999994
0.7880	0.20423760000000002
0.7890	0.1872178
0.7900	0.17019799999999996
0.7910	0.15317819999999993
0.7920	0.1361584
0.7930	0.11913859999999998
0.7940	0.10211879999999995
0.7950	0.08509900000000004
0.7960	0.0680792
0.7970	0.05105939999999998
0.7980	0.03403959999999995
0.7990	0.01701980000000003
0.8000	0.0
0.8010	0.0
0.8020	0.0
0.8030	0.0
0.8040	0.0
0.8050	0.0
0.8060	0.0
0.8070	0.0
0.8080	0.0
0.8090	0.0
0.8100	0.0
0.8110	0.0
0.8120	0.0
0.8130	0.0
0.8140	0.0
0.8150	0.0
0.8160	0.0
0.8170	0.0
0.8180	0.0
0.8190	0.0
0.8200	0.0
0.8210	0.0
0.8220	0.0
0.8230	0.0
0.8240	0.0
0.8250	0.0
0.8260	0.0
0.8270	0.0
0.8280	0.0
0.8290	0.0
0.8300	0.0
0.8310	0.0
0.8320	0.0
0.8330	0.0
0.8340	0.0
0.8350	0.0
0.8360	0.0
0.8370	0.0
0.8380	0.0
0.8390	0.0
0.8400	0.0
0.8410	0.0
0.8420	0.0
0.8430	0.0
0.8440	0.0
0.8450	0.0
0.8460	0.0
0.8470	0.0
0.8480	0.0
0.8490	0.0
0.8500	0.0
0.8510	0.0
0.8520	0.0
0.8530	0.0
0.8540	0.0
0.8550	0.0
0.8560	0.0
0.8570	0.0
0.8580	0.0
0.8590	0.0
0.8600	0.0
0.8610	0.0
0.8620	0.0
0.8630	0.0
0.8640	0.0
0.8650	0.0
0.8660	0.0
0.8670	0.0
0.8680	0.0
0.8690	0.0
0.8700	0.0
0.8710	0.0
0.8720	0.0
0.8730	0.0
0.8740	0.0
0.8750	0.0
0.8760	0.0
0.8770	0.0
0.8780	0.0
0.8790	0.0
0.8800	0.0
0.8810	0.0
0.8820	0.0
0.8830	0.0
0.8840	0.0
0.8850	0.0
0.8860	0.0
0.8870	0.0
0.8880	0.0
0.8890	0.0
0.8900	0.0
0.8910	0.0
0.8920	0.0
0.8930	0.0
0.8940	0.0
0.8950	0.0
0.8960	0.0
0.8970	0.0
0.8980	0.0
0.8990	0.0
0.9000	0.0
0.9010	0.0
0.9020	0.0
0.9030	0.0
0.9040	0.0
0.9050	0.0
0.9060	0.0
0.9070	0.0
0.9080	0.0
0.9090	0.0
0.9100	0.0
0.9110	0.0
0.9120	0.0
0.9130	0.0
0.9140	0.0
0.9150	0.0
0.9160	0.0
0.9170	0.0
0.9180	0.0
0.9190	0.0
0.9200	0.0
0.9210	0.0
0.9220	0.0
0.9230	0.0
0.9240	0.0
0.9250	0.0
0.9260	0.0
0.9270	0.0
0.9280	0.0
0.9290	0.0
0.9300	0.0
0.9310	0.0
0.9320	0.0
0.9330	0.0
0.9340	0.0
0.9350	0.0
0.9360	0.0
0.9370	0.0
0.9380	0.0
0.9390	0.0
0.9400	0.0
0.9410	0.0
0.9420	0.0
0.9430	0.0
0.9440	0.0
0.9450	0.0
0.9460	0.0
0.9470	0.0
0.9480	0.0
0.9490	0.0
0.9500	0.0
0.9510	0.0
0.9520	0.0
0.9530	0.0
0.9540	0.0
0.9550	0.0
0.9560	0.0
0.9570	0.0
0.9580	0.0
0.9590	0.0
0.9600	0.0
0.9610	0.0
0.9620	0.0
0.9630	0.0
0.9640	0.0
0.9650	0.0
0.9660	0.0
0.9670	0.0
0.9680	0.0
0.9690	0.0
0.9700	0.0
0.9710	0.0
0.9720	0.0
0.9730	0.0
0.9740	0.0
0.9750	0.0
0.9760	0.0
0.9770	0.0
0.9780	0.0
0.9790	0.0
0.9800	0.0
0.9810	0.0
0.9820	0.0
0.9830	0.0
0.9840	0.0
0.9850	0.0
0.9860	0.0
0.9870	0.0
0.9880	0.0
0.9890	0.0
0.9900	0.0
0.9910	0.0
0.9920	0.0
0.9930	0.0
0.9940	0.0
0.9950	0.0
0.9960	0.0
0.9970	0.0
0.9980	0.0
0.9990	0.0
1.0000	0.0
;; FORMOSAT5 Band: NIR
0.3000	0.0
0.3010	0.0
0.3020	0.0
0.3030	0.0
0.3040	0.0
0.3050	0.0
0.3060	0.0
0.3070	0.0
0.3080	0.0
0.3090	0.0
0.3100	0.0
0.3110	0.0
0.3120	0.0
0.3130	0.0
0.3140	0.0
0.3150	0.0
0.3160	0.0
0.3170	0.0
0.3180	0.0
0.3190	0.0
0.3200	0.0
0.3210	0.0
0.3220	0.0
0.3230	0.0
0.3240	0.0
0.3250	0.0
0.3260	0.0
0.3270	0.0
0.3280	0.0
0.3290	0.0
0.3300	0.0
0.3310	0.0
0.3320	0.0
0.3330	0.0
0.3340	0.0
0.3350	0.0
0.3360	0.0
0.3370	0.0
0.3380	0.0
0.3390	0.0
0.3400	0.0
0.3410	0.0
0.3420	0.0
0.3430	0.0
0.3440	0.0
0.3450	0.0
0.3460	0.0
0.3470	0.0
0.3480	0.0
0.3490	0.0
0.3500	0.0
0.3510	0.0
0.3520	0.0
0.3530	0.0
0.3540	0.0
0.3550	0.0
0.3560	0.0
0.3570	0.0
0.3580	0.0
0.3590	0.0
0.3600	0.0
0.3610	0.0
0.3620	0.0
0.3630	0.0
0.3640	0.0
0.3650	0.0
0.3660	0.0
0.3670	0.0
0.3680	0.0
0.3690	0.0
0.3700	0.0
0.3710	0.0
0.3720	0.0
0.3730	0.0
0.3740	0.0
0.3750	0.0
0.3760	0.0
0.3770	0.0
0.3780	0.0
0.3790	0.0
0.3800	0.0
0.3810	0.0
0.3820	0.0
0.3830	0.0
0.3840	0.0
0.3850	0.0
0.3860	0.0
0.3870	0.0
0.3880	0.0
0.3890	0.0
0.3900	0.0
0.3910	0.0
0.3920	0.0
0.3930	0.0
0.3940	0.0
0.3950	0.0
0.3960	0.0
0.3970	0.0
0.3980	0.0
0.3990	0.0
0.4000	0.0
0.4010	0.0
0.4020	0.0
0.4030	0.0
0.4040	0.0
0.4050	0.0
0.4060	0.0
0.4070	0.0
0.4080	0.0
0.4090	0.0
0.4100	0.0
0.4110	0.0
0.4120	0.0
0.4130	0.0
0.4140	0.0
0.4150	0.0
0.4160	0.0
0.4170	0.0
0.4180	0.0
0.4190	0.0
0.4200	0.0
0.4210	0.0
0.4220	0.0
0.4230	0.0
0.4240	0.0
0.4250	0.0
0.4260	0.0
0.4270	0.0
0.4280	0.0
0.4290	0.0
0.4300	0.0
0.4310	0.0
0.4320	0.0
0.4330	0.0
0.4340	0.0
0.4350	0.0
0.4360	0.0
0.4370	0.0
0.4380	0.0
0.4390	0.0
0.4400	0.0
0.4410	0.0
0.4420	0.0
0.4430	0.0
0.4440	0.0
0.4450	0.0
0.4460	0.0
0.4470	0.0
0.4480	0.0
0.4490	0.0
0.4500	0.0
0.4510	0.0
0.4520	0.0
0.4530	0.0
0.4540	0.0
0.4550	0.0
0.4560	0.0
0.4570	0.0
0.4580	0.0
0.4590	0.0
0.4600	0.0
0.4610	0.0
0.4620	0.0
0.4630	0.0
0.4640	0.0
0.4650	0.0
0.4660	0.0
0.4670	0.0
0.4680	0.0
0.4690	0.0
0.4700	0.0
0.4710	0.0
0.4720	0.0
0.4730	0.0
0.4740	0.0
0.4750	0.0
0.4760	0.0
0.4770	0.0
0.4780	0.0
0.4790	0.0
0.4800	0.0
0.4810	0.0
0.4820	0.0
0.4830	0.0
0.4840	0.0
0.4850	0.0
0.4860	0.0
0.4870	0.0
0.4880	0.0
0.4890	0.0
0.4900	0.0
0.4910	0.0
0.4920	0.0
0.4930	0.0
0.4940	0.0
0.4950	0.0
0.4960	0.0
0.4970	0.0
0.4980	0.0
0.4990	0.0
0.5000	0.0
0.5010	0.0
0.5020	0.0
0.5030	0.0
0.5040	0.0
0.5050	0.0
0.5060	0.0
0.5070	0.0
0.5080	0.0
0.5090	0.0
0.5100	0.0
0.5110	0.0
0.5120	0.0
0.5130	0.0
0.5140	0.0
0.5150	0.0
0.5160	0.0
0.5170	0.0
0.5180	0.0
0.5190	0.0
0.5200	0.0
0.5210	0.0
0.5220	0.0
0.5230	0.0
0.5240	0.0
0.5250	0.0
0.5260	0.0
0.5270	0.0
0.5280	0.0
0.5290	0.0
0.5300	0.0
0.5310	0.0
0.5320	0.0
0.5330	0.0
0.5340	0.0
0.5350	0.0
0.5360	0.0
0.5370	0.0
0.5380	0.0
0.5390	0.0
0.5400	0.0
0.5410	0.0
0.5420	0.0
0.5430	0.0
0.5440	0.0
0.5450	0.0
0.5460	0.0
0.5470	0.0
0.5480	0.0
0.5490	0.0
0.5500	0.0
0.5510	0.0
0.5520	0.0
0.5530	0.0
0.5540	0.0
0.5550	0.0
0.5560	0.0
0.5570	0.0
0.5580	0.0
0.5590	0.0
0.5600	0.0
0.5610	0.0
0.5620	0.0
0.5630	0.0
0.5640	0.0
0.5650	0.0
0.5660	0.0
0.5670	0.0
0.5680	0.0
0.5690	0.0
0.5700	0.0
0.5710	0.0
0.5720	0.0
0.5730	0.0
0.5740	0.0
0.5750	0.0
0.5760	0.0
0.5770	0.0
0.5780	0.0
0.5790	0.0
0.5800	0.0
0.5810	0.0
0.5820	0.0
0.5830	0.0
0.5840	0.0
0.5850	0.0
0.5860	0.0
0.5870	0.0
0.5880	0.0
0.5890	0.0
0.5900	0.0
0.5910	0.0
0.5920	0.0
0.5930	0.0
0.5940	0.0
0.5950	0.0
0.5960	0.0
0.5970	0.0
0.5980	0.0
0.5990	0.0
0.6000	0.0
0.6010	0.0
0.6020	0.0
0.6030	0.0
0.6040	0.0
0.6050	0.0
0.6060	0.0
0.6070	0.0
0.6080	0.0
0.6090	0.0
0.6100	0.0
0.6110	0.0
0.6120	0.0
0.6130	0.0
0.6140	0.0
0.6150	0.0
0.6160	0.0
0.6170	0.0
0.6180	0.0
0.6190	0.0
0.6200	0.0
0.6210	0.0
0.6220	0.0
0.6230	0.0
0.6240	0.0
0.6250	0.0
0.6260	0.0
0.6270	0.0
0.6280	0.0
0.6290	0.0
0.6300	0.0
0.6310	0.0
0.6320	0.0
0.6330	0.0
0.6340	0.0
0.6350	0.0
0.6360	0.0
0.6370	0.0
0.6380	0.0
0.6390	0.0
0.6400	0.0
0.6410	0.0
0.6420	0.0
0.6430	0.0
0.6440	0.0
0.6450	0.0
0.6460	0.0
0.6470	0.0
0.6480	0.0
0.6490	0.0
0.6500	0.0
0.6510	0.0
0.6520	0.0
0.6530	0.0
0.6540	0.0
0.6550	0.0
0.6560	0.0
0.6570	0.0
0.6580	0.0
0.6590	0.0
0.6600	0.0
0.6610	0.0
0.6620	0.0
0.6630	0.0
0.6640	0.0
0.6650	0.0
0.6660	0.0
0.6670	0.0
0.6680	0.0
0.6690	0.0
0.6700	0.0
0.6710	0.0
0.6720	0.0
0.6730	0.0
0.6740	0.0
0.6750	0.0
0.6760	0.0
0.6770	0.0
0.6780	0.0
0.6790	0.0
0.6800	0.0
0.6810	0.0
0.6820	0.0
0.6830	0.0
0.6840	0.0
0.6850	0.0
0.6860	0.0
0.6870	0.0
0.6880	0.0
0.6890	0.0
0.6900	0.0
0.6910	0.0
0.6920	0.0
0.6930	0.0
0.6940	0.0
0.6950	0.0
0.6960	0.0
0.6970	0.0
0.6980	0.0
0.6990	0.0
0.7000	0.0
0.7010	0.02
0.7020	0.04
0.7030	0.06
0.7040	0.08
0.7050	0.1
0.7060	0.12
0.7070	0.14
0.7080	0.16
0.7090	0.18
0.7100	0.2
0.7110	0.22
0.7120	0.24
0.7130	0.26
0.7140	0.28
0.7150	0.3
0.7160	0.32
0.7170	0.34
0.7180	0.36
0.7190	0.38
0.7200	0.4
0.7210	0.42
0.7220	0.44
0.7230	0.46
0.7240	0.48
0.7250	0.5
0.7260	0.52
0.7270	0.54
0.7280	0.56
0.7290	0.58
0.7300	0.6
0.7310	0.62
0.7320	0.64
0.7330	0.66
0.7340	0.68
0.7350	0.7
0.7360	0.72
0.7370	0.74
0.7380	0.76
0.7390	0.78
0.7400	0.8
0.7410	0.82
0.7420	0.84
0.7430	0.86
0.7440	0.88
0.7450	0.9
0.7460	0.92
0.7470	0.94
0.7480	0.96
0.7490	0.98
0.7500	1.0
0.7510	0.9977882
0.7520	0.9955764
0.7530	0.9933646
0.7540	0.9911528000000001
0.7550	0.988941
0.7560	0.9867292
0.7570	0.9845174
0.7580	0.9823056
0.7590	0.9800938
0.7600	0.977882
0.7610	0.9756702
0.7620	0.9734584000000001
0.7630	0.9712466
0.7640	0.9690348
0.7650	0.966823
0.7660	0.9646112
0.7670	0.9623994
0.7680	0.9601876
0.7690	0.9579758
0.7700	0.9557640000000001
0.7710	0.9535522
0.7720	0.9513404
0.7730	0.9491286
0.7740	0.9469168
0.7750	0.944705
0.7760	0.9424932
0.7770	0.9402814
0.7780	0.9380696000000001
0.7790	0.9358578
0.7800	0.933646
0.7810	0.9314342
0.7820	0.9292224
0.7830	0.9270106
0.7840	0.9247988
0.7850	0.922587
0.7860	0.9203752000000001
0.7870	0.9181634000000001
0.7880	0.9159516
0.7890	0.9137398
0.7900	0.911528
0.7910	0.9093162
0.7920	0.9071044
0.7930	0.9048926
0.7940	0.9026808000000001
0.7950	0.900469
0.7960	0.8982572
0.7970	0.8960454
0.7980	0.8938336
0.7990	0.8916218
0.8000	0.88941
0.8010	0.8869676400000001
0.8020	0.88452528
0.8030	0.88208292
0.8040	0.87964056
0.8050	0.8771982
0.8060	0.87475584
0.8070	0.87231348
0.8080	0.86987112
0.8090	0.86742876
0.8100	0.8649863999999999
0.8110	0.86254404
0.8120	0.86010168
0.8130	0.8576593200000002
0.8140	0.8552169600000002
0.8150	0.8527746000000002
0.8160	0.8503322400000002
0.8170	0.8478898800000002
0.8180	0.8454475200000002
0.8190	0.8430051600000001
0.8200	0.8405628000000002
0.8210	0.8381204400000002
0.8220	0.8356780800000002
0.8230	0.8332357200000001
0.8240	0.8307933600000001
0.8250	0.8283510000000002
0.8260	0.8259086400000002
0.8270	0.8234662800000001
0.8280	0.8210239200000001
0.8290	0.8185815600000002
0.8300	0.8161392000000001
0.8310	0.8136968400000001
0.8320	0.8112544800000001
0.8330	0.8088121200000001
0.8340	0.80636976
0.8350	0.8039274000000001
0.8360	0.8014850400000001
0.8370	0.7990426800000001
0.8380	0.79660032
0.8390	0.79415796
0.8400	0.7917156000000001
0.8410	0.78927324
0.8420	0.78683088
0.8430	0.78438852
0.8440	0.7819461600000001
0.8450	0.7795038
0.8460	0.77706144
0.8470	0.77461908
0.8480	0.77217672
0.8490	0.76973436
0.8500	0.767292
0.8510	0.7618535399999999
0.8520	0.75641508
0.8530	0.75097662
0.8540	0.74553816
0.8550	0.7400997
0.8560	0.73466124
0.8570	0.72922278
0.8580	0.7237843199999999
0.8590	0.71834586
0.8600	0.7129074
0.8610	0.7074689399999999
0.8620	0.70203048
0.8630	0.69659202
0.8640	0.69115356
0.8650	0.6857151
0.8660	0.68027664
0.8670	0.67483818
0.8680	0.6693997199999999
0.8690	0.66396126
0.8700	0.6585228
0.8710	0.6530843399999999
0.8720	0.64764588
0.8730	0.64220742
0.8740	0.6367689599999999
0.8750	0.6313305
0.8760	0.62589204
0.8770	0.62045358
0.8780	0.61501512
0.8790	0.60957666
0.8800	0.6041382
0.8810	0.59869974
0.8820	0.59326128
0.8830	0.58782282
0.8840	0.58238436
0.8850	0.5769459
0.8860	0.57150744
0.8870	0.56606898
0.8880	0.56063052
0.8890	0.55519206
0.8900	0.5497536
0.8910	0.54431514
0.8920	0.53887668
0.8930	0.53343822
0.8940	0.5279997599999999
0.8950	0.5225613
0.8960	0.51712284
0.8970	0.5116843799999999
0.8980	0.50624592
0.8990	0.50080746
0.9000	0.495369
0.9010	0.48546162
0.9020	0.47555423999999996
0.9030	0.46564685999999994
0.9040	0.4557394799999999
0.9050	0.4458320999999999
0.9060	0.4359247199999999
0.9070	0.42601733999999986
0.9080	0.41610995999999983
0.9090	0.4062025799999998
0.9100	0.3962951999999998
0.9110	0.38638781999999977
0.9120	0.37648043999999975
0.9130	0.3665730599999997
0.9140	0.35666567999999965
0.9150	0.34675829999999963
0.9160	0.3368509199999996
0.9170	0.3269435399999996
0.9180	0.31703615999999957
0.9190	0.30712877999999955
0.9200	0.2972213999999995
0.9210	0.2873140199999995
0.9220	0.2774066399999995
0.9230	0.26749925999999946
0.9240	0.25759187999999944
0.9250	0.24768449999999942
0.9260	0.2377771199999994
0.9270	0.22786973999999938
0.9280	0.21796235999999936
0.9290	0.20805497999999933
0.9300	0.1981475999999993
0.9310	0.1882402199999993
0.9320	0.17833283999999927
0.9330	0.16842545999999925
0.9340	0.15851807999999923
0.9350	0.1486106999999992
0.9360	0.1387033199999992
0.9370	0.12879593999999916
0.9380	0.11888856000000025
0.9390	0.10898118000000023
0.9400	0.09907380000000021
0.9410	0.08916642000000019
0.9420	0.07925904000000017
0.9430	0.06935166000000015
0.9440	0.05944428000000007
0.9450	0.04953690000000005
0.9460	0.03962952000000003
0.9470	0.029722140000000008
0.9480	0.019814759999999987
0.9490	0.009907379999999966
0.9500	0.0
0.9510	0.0
0.9520	0.0
0.9530	0.0
0.9540	0.0
0.9550	0.0
0.9560	0.0
0.9570	0.0
0.9580	0.0
0.9590	0.0
0.9600	0.0
0.9610	0.0
0.9620	0.0
0.9630	0.0
0.9640	0.0
0.9650	0.0
0.9660	0.0
0.9670	0.0
0.9680	0.0
0.9690	0.0
0.9700	0.0
0.9710	0.0
0.9720	0.0
0.9730	0.0
0.9740	0.0
0.9750	0.0
0.9760	0.0
0.9770	0.0
0.9780	0.0
0.9790	0.0
0.9800	0.0
0.9810	0.0
0.9820	0.0
0.9830	0.0
0.9840	0.0
0.9850	0.0
0.9860	0.0
0.9870	0.0
0.9880	0.0
0.9890	0.0
0.9900	0.0
0.9910	0.0
0.9920	0.0
0.9930	0.0
0.9940	0.0
0.9950	0.0
0.9960	0.0
0.9970	0.0
0.9980	0.0
0.9990	0.0
1.0000	0.0
