;; GF6/PMS RSR
;;
;; Quinten Vanhellemont 2021-08-10
;; from Table sent by Mona Allam
;;
;; datasets: wavelength, RSR
;;
;; BAND MS1
400	0.00181
401	0.00175
402	0.00170
403	0.00185
404	0.00199
405	0.00194
406	0.00189
407	0.00189
408	0.00190
409	0.00184
410	0.00178
411	0.00181
412	0.00184
413	0.00190
414	0.00195
415	0.00193
416	0.00190
417	0.00179
418	0.00168
419	0.00168
420	0.00168
421	0.00167
422	0.00167
423	0.00167
424	0.00166
425	0.00153
426	0.00139
427	0.00132
428	0.00124
429	0.00135
430	0.00145
431	0.00142
432	0.00140
433	0.00138
434	0.00135
435	0.00158
436	0.00181
437	0.00237
438	0.00294
439	0.00365
440	0.00437
441	0.00483
442	0.00529
443	0.00671
444	0.00814
445	0.01532
446	0.02249
447	0.04745
448	0.07241
449	0.13015
450	0.18788
451	0.26113
452	0.33437
453	0.39875
454	0.46314
455	0.49302
456	0.52289
457	0.52923
458	0.53558
459	0.55303
460	0.57049
461	0.58645
462	0.60242
463	0.60713
464	0.61184
465	0.61843
466	0.62503
467	0.63385
468	0.64267
469	0.66281
470	0.68296
471	0.69119
472	0.69942
473	0.69681
474	0.69421
475	0.70561
476	0.71702
477	0.74053
478	0.76405
479	0.77639
480	0.78873
481	0.80031
482	0.81189
483	0.82611
484	0.84034
485	0.83618
486	0.83202
487	0.85004
488	0.86805
489	0.88782
490	0.90760
491	0.92695
492	0.94630
493	0.96493
494	0.98356
495	0.99178
496	1.00000
497	0.99286
498	0.98573
499	0.98921
500	0.99268
501	0.99568
502	0.99867
503	0.97708
504	0.95549
505	0.95149
506	0.94748
507	0.94128
508	0.93507
509	0.92010
510	0.90513
511	0.89810
512	0.89107
513	0.87126
514	0.85145
515	0.84103
516	0.83062
517	0.77186
518	0.71309
519	0.60973
520	0.50636
521	0.37025
522	0.23415
523	0.15320
524	0.07225
525	0.04604
526	0.01981
527	0.01311
528	0.00640
529	0.00458
530	0.00276
531	0.00216
532	0.00155
533	0.00129
534	0.00102
535	0.00093
536	0.00084
537	0.00080
538	0.00076
539	0.00071
540	0.00066
541	0.00062
542	0.00058
543	0.00059
544	0.00060
545	0.00063
546	0.00065
547	0.00075
548	0.00085
549	0.00099
550	0.00113
551	0.00125
552	0.00137
553	0.00120
554	0.00103
555	0.00079
556	0.00055
557	0.00051
558	0.00046
559	0.00043
560	0.00040
561	0.00041
562	0.00042
563	0.00041
564	0.00040
565	0.00039
566	0.00039
567	0.00038
568	0.00038
569	0.00038
570	0.00038
571	0.00039
572	0.00039
573	0.00038
574	0.00038
575	0.00039
576	0.00040
577	0.00044
578	0.00047
579	0.00051
580	0.00056
581	0.00072
582	0.00088
583	0.00101
584	0.00114
585	0.00101
586	0.00087
587	0.00072
588	0.00056
589	0.00054
590	0.00052
591	0.00050
592	0.00047
593	0.00047
594	0.00047
595	0.00048
596	0.00049
597	0.00052
598	0.00054
599	0.00060
600	0.00066
601	0.00075
602	0.00084
603	0.00093
604	0.00101
605	0.00102
606	0.00103
607	0.00089
608	0.00075
609	0.00067
610	0.00060
611	0.00054
612	0.00049
613	0.00050
614	0.00051
615	0.00053
616	0.00055
617	0.00058
618	0.00062
619	0.00071
620	0.00080
621	0.00094
622	0.00108
623	0.00125
624	0.00142
625	0.00154
626	0.00165
627	0.00169
628	0.00172
629	0.00167
630	0.00163
631	0.00161
632	0.00160
633	0.00164
634	0.00167
635	0.00177
636	0.00187
637	0.00198
638	0.00210
639	0.00219
640	0.00229
641	0.00228
642	0.00227
643	0.00219
644	0.00210
645	0.00200
646	0.00191
647	0.00183
648	0.00175
649	0.00175
650	0.00174
651	0.00173
652	0.00173
653	0.00172
654	0.00171
655	0.00162
656	0.00153
657	0.00137
658	0.00121
659	0.00104
660	0.00088
661	0.00076
662	0.00063
663	0.00056
664	0.00049
665	0.00043
666	0.00038
667	0.00036
668	0.00033
669	0.00032
670	0.00030
671	0.00029
672	0.00028
673	0.00029
674	0.00029
675	0.00029
676	0.00029
677	0.00030
678	0.00031
679	0.00033
680	0.00035
681	0.00039
682	0.00043
683	0.00050
684	0.00057
685	0.00068
686	0.00079
687	0.00093
688	0.00107
689	0.00116
690	0.00126
691	0.00126
692	0.00126
693	0.00117
694	0.00108
695	0.00099
696	0.00089
697	0.00083
698	0.00076
699	0.00074
700	0.00072
701	0.00073
702	0.00074
703	0.00077
704	0.00080
705	0.00086
706	0.00093
707	0.00102
708	0.00112
709	0.00120
710	0.00129
711	0.00132
712	0.00134
713	0.00130
714	0.00126
715	0.00115
716	0.00104
717	0.00092
718	0.00081
719	0.00072
720	0.00064
721	0.00060
722	0.00056
723	0.00053
724	0.00049
725	0.00049
726	0.00048
727	0.00048
728	0.00048
729	0.00050
730	0.00053
731	0.00056
732	0.00059
733	0.00066
734	0.00073
735	0.00083
736	0.00094
737	0.00110
738	0.00126
739	0.00144
740	0.00161
741	0.00170
742	0.00179
743	0.00172
744	0.00166
745	0.00150
746	0.00134
747	0.00118
748	0.00102
749	0.00093
750	0.00084
751	0.00079
752	0.00074
753	0.00071
754	0.00069
755	0.00068
756	0.00068
757	0.00069
758	0.00070
759	0.00072
760	0.00073
761	0.00081
762	0.00088
763	0.00098
764	0.00108
765	0.00124
766	0.00140
767	0.00157
768	0.00173
769	0.00185
770	0.00197
771	0.00199
772	0.00200
773	0.00190
774	0.00180
775	0.00162
776	0.00144
777	0.00130
778	0.00116
779	0.00105
780	0.00095
781	0.00089
782	0.00083
783	0.00080
784	0.00078
785	0.00076
786	0.00074
787	0.00076
788	0.00077
789	0.00081
790	0.00084
791	0.00091
792	0.00098
793	0.00110
794	0.00122
795	0.00139
796	0.00157
797	0.00177
798	0.00197
799	0.00207
800	0.00217
801	0.00209
802	0.00201
803	0.00177
804	0.00153
805	0.00129
806	0.00106
807	0.00091
808	0.00076
809	0.00067
810	0.00058
811	0.00053
812	0.00048
813	0.00045
814	0.00041
815	0.00039
816	0.00037
817	0.00036
818	0.00035
819	0.00034
820	0.00034
821	0.00033
822	0.00032
823	0.00032
824	0.00031
825	0.00032
826	0.00033
827	0.00033
828	0.00033
829	0.00033
830	0.00033
831	0.00034
832	0.00035
833	0.00035
834	0.00034
835	0.00036
836	0.00037
837	0.00039
838	0.00041
839	0.00041
840	0.00041
841	0.00044
842	0.00046
843	0.00052
844	0.00058
845	0.00062
846	0.00066
847	0.00074
848	0.00082
849	0.00088
850	0.00095
851	0.00101
852	0.00108
853	0.00109
854	0.00110
855	0.00107
856	0.00103
857	0.00099
858	0.00095
859	0.00090
860	0.00085
861	0.00081
862	0.00077
863	0.00072
864	0.00067
865	0.00066
866	0.00065
867	0.00064
868	0.00063
869	0.00061
870	0.00059
871	0.00059
872	0.00059
873	0.00059
874	0.00059
875	0.00060
876	0.00061
877	0.00062
878	0.00064
879	0.00066
880	0.00068
881	0.00070
882	0.00073
883	0.00075
884	0.00077
885	0.00080
886	0.00082
887	0.00084
888	0.00087
889	0.00088
890	0.00090
891	0.00091
892	0.00092
893	0.00090
894	0.00088
895	0.00086
896	0.00084
897	0.00081
898	0.00078
899	0.00074
900	0.00070
901	0.00066
902	0.00062
903	0.00058
904	0.00055
905	0.00051
906	0.00046
907	0.00042
908	0.00037
909	0.00035
910	0.00032
911	0.00029
912	0.00026
913	0.00024
914	0.00023
915	0.00022
916	0.00021
917	0.00019
918	0.00018
919	0.00017
920	0.00017
921	0.00016
922	0.00015
923	0.00015
924	0.00015
925	0.00015
926	0.00015
927	0.00015
928	0.00015
929	0.00015
930	0.00015
931	0.00015
932	0.00014
933	0.00014
934	0.00014
935	0.00014
936	0.00015
937	0.00014
938	0.00013
939	0.00013
940	0.00013
941	0.00014
942	0.00015
943	0.00015
944	0.00015
945	0.00014
946	0.00014
947	0.00014
948	0.00015
949	0.00015
950	0.00015
951	0.00014
952	0.00014
953	0.00014
954	0.00015
955	0.00015
956	0.00015
957	0.00015
958	0.00015
959	0.00015
960	0.00015
961	0.00015
962	0.00015
963	0.00016
964	0.00016
965	0.00015
966	0.00015
967	0.00015
968	0.00014
969	0.00015
970	0.00015
971	0.00015
972	0.00015
973	0.00014
974	0.00014
975	0.00015
976	0.00015
977	0.00015
978	0.00014
979	0.00015
980	0.00015
981	0.00015
982	0.00014
983	0.00014
984	0.00014
985	0.00014
986	0.00015
987	0.00015
988	0.00015
989	0.00015
990	0.00014
991	0.00015
992	0.00015
993	0.00015
994	0.00016
995	0.00015
996	0.00015
997	0.00015
998	0.00015
999	0.00015
1000	0.00016
;;
;; BAND MS2
400	0.00464
401	0.00467
402	0.00469
403	0.00419
404	0.00370
405	0.00396
406	0.00422
407	0.00456
408	0.00491
409	0.00468
410	0.00446
411	0.00452
412	0.00458
413	0.00478
414	0.00497
415	0.00478
416	0.00459
417	0.00455
418	0.00451
419	0.00454
420	0.00456
421	0.00472
422	0.00487
423	0.00484
424	0.00480
425	0.00479
426	0.00479
427	0.00479
428	0.00480
429	0.00483
430	0.00486
431	0.00493
432	0.00500
433	0.00480
434	0.00460
435	0.00437
436	0.00415
437	0.00379
438	0.00344
439	0.00314
440	0.00283
441	0.00269
442	0.00254
443	0.00247
444	0.00240
445	0.00253
446	0.00266
447	0.00281
448	0.00297
449	0.00331
450	0.00366
451	0.00370
452	0.00375
453	0.00389
454	0.00403
455	0.00404
456	0.00405
457	0.00399
458	0.00392
459	0.00398
460	0.00404
461	0.00401
462	0.00399
463	0.00410
464	0.00421
465	0.00430
466	0.00440
467	0.00467
468	0.00493
469	0.00532
470	0.00570
471	0.00596
472	0.00621
473	0.00612
474	0.00603
475	0.00594
476	0.00586
477	0.00618
478	0.00650
479	0.00688
480	0.00726
481	0.00778
482	0.00830
483	0.00834
484	0.00837
485	0.00762
486	0.00686
487	0.00620
488	0.00554
489	0.00502
490	0.00450
491	0.00420
492	0.00390
493	0.00376
494	0.00362
495	0.00363
496	0.00364
497	0.00375
498	0.00385
499	0.00415
500	0.00445
501	0.00502
502	0.00559
503	0.00634
504	0.00710
505	0.00867
506	0.01024
507	0.01312
508	0.01600
509	0.02101
510	0.02603
511	0.03664
512	0.04726
513	0.06705
514	0.08685
515	0.12762
516	0.16839
517	0.23356
518	0.29873
519	0.38625
520	0.47377
521	0.54011
522	0.60644
523	0.64492
524	0.68341
525	0.68852
526	0.69364
527	0.69060
528	0.68757
529	0.69125
530	0.69493
531	0.69005
532	0.68516
533	0.68037
534	0.67558
535	0.68145
536	0.68733
537	0.69106
538	0.69479
539	0.69600
540	0.69720
541	0.70520
542	0.71319
543	0.71998
544	0.72677
545	0.73714
546	0.74752
547	0.76968
548	0.79185
549	0.80247
550	0.81309
551	0.83212
552	0.85115
553	0.86402
554	0.87689
555	0.89389
556	0.91089
557	0.92207
558	0.93326
559	0.94330
560	0.95333
561	0.97089
562	0.98845
563	0.99164
564	0.99483
565	0.99742
566	1.00000
567	0.99880
568	0.99759
569	0.99082
570	0.98404
571	0.97723
572	0.97043
573	0.97060
574	0.97077
575	0.96952
576	0.96828
577	0.96665
578	0.96503
579	0.95891
580	0.95279
581	0.95005
582	0.94731
583	0.93884
584	0.93036
585	0.92665
586	0.92294
587	0.91405
588	0.90517
589	0.90089
590	0.89661
591	0.89249
592	0.88838
593	0.88165
594	0.87492
595	0.85234
596	0.82976
597	0.77938
598	0.72900
599	0.65040
600	0.57179
601	0.48191
602	0.39202
603	0.30214
604	0.21225
605	0.16158
606	0.11091
607	0.08467
608	0.05843
609	0.04570
610	0.03296
611	0.02647
612	0.01998
613	0.01647
614	0.01296
615	0.01099
616	0.00902
617	0.00784
618	0.00667
619	0.00593
620	0.00519
621	0.00472
622	0.00424
623	0.00395
624	0.00365
625	0.00346
626	0.00327
627	0.00317
628	0.00308
629	0.00304
630	0.00300
631	0.00302
632	0.00303
633	0.00309
634	0.00316
635	0.00333
636	0.00351
637	0.00371
638	0.00390
639	0.00416
640	0.00441
641	0.00464
642	0.00487
643	0.00499
644	0.00511
645	0.00507
646	0.00503
647	0.00477
648	0.00452
649	0.00419
650	0.00386
651	0.00351
652	0.00317
653	0.00291
654	0.00265
655	0.00244
656	0.00224
657	0.00210
658	0.00195
659	0.00186
660	0.00177
661	0.00170
662	0.00163
663	0.00160
664	0.00157
665	0.00158
666	0.00158
667	0.00159
668	0.00160
669	0.00162
670	0.00165
671	0.00172
672	0.00179
673	0.00188
674	0.00197
675	0.00210
676	0.00223
677	0.00238
678	0.00253
679	0.00273
680	0.00294
681	0.00318
682	0.00343
683	0.00372
684	0.00402
685	0.00429
686	0.00456
687	0.00478
688	0.00499
689	0.00516
690	0.00533
691	0.00539
692	0.00546
693	0.00543
694	0.00540
695	0.00537
696	0.00533
697	0.00524
698	0.00516
699	0.00506
700	0.00497
701	0.00491
702	0.00485
703	0.00481
704	0.00476
705	0.00471
706	0.00467
707	0.00466
708	0.00465
709	0.00467
710	0.00468
711	0.00467
712	0.00466
713	0.00467
714	0.00469
715	0.00469
716	0.00470
717	0.00471
718	0.00472
719	0.00473
720	0.00474
721	0.00472
722	0.00469
723	0.00470
724	0.00470
725	0.00467
726	0.00464
727	0.00462
728	0.00461
729	0.00456
730	0.00451
731	0.00447
732	0.00444
733	0.00441
734	0.00439
735	0.00436
736	0.00434
737	0.00433
738	0.00433
739	0.00434
740	0.00434
741	0.00438
742	0.00441
743	0.00445
744	0.00449
745	0.00453
746	0.00458
747	0.00466
748	0.00473
749	0.00484
750	0.00495
751	0.00507
752	0.00520
753	0.00528
754	0.00536
755	0.00547
756	0.00560
757	0.00570
758	0.00581
759	0.00584
760	0.00588
761	0.00598
762	0.00608
763	0.00612
764	0.00616
765	0.00619
766	0.00621
767	0.00618
768	0.00614
769	0.00609
770	0.00603
771	0.00596
772	0.00588
773	0.00582
774	0.00576
775	0.00567
776	0.00558
777	0.00555
778	0.00552
779	0.00547
780	0.00542
781	0.00541
782	0.00540
783	0.00541
784	0.00541
785	0.00545
786	0.00549
787	0.00552
788	0.00556
789	0.00565
790	0.00574
791	0.00581
792	0.00589
793	0.00593
794	0.00599
795	0.00604
796	0.00610
797	0.00614
798	0.00617
799	0.00616
800	0.00616
801	0.00614
802	0.00612
803	0.00608
804	0.00603
805	0.00594
806	0.00584
807	0.00575
808	0.00566
809	0.00553
810	0.00539
811	0.00527
812	0.00515
813	0.00503
814	0.00491
815	0.00482
816	0.00473
817	0.00464
818	0.00455
819	0.00449
820	0.00443
821	0.00436
822	0.00429
823	0.00424
824	0.00420
825	0.00417
826	0.00414
827	0.00410
828	0.00406
829	0.00405
830	0.00403
831	0.00404
832	0.00406
833	0.00402
834	0.00398
835	0.00398
836	0.00397
837	0.00394
838	0.00390
839	0.00384
840	0.00380
841	0.00376
842	0.00373
843	0.00365
844	0.00357
845	0.00350
846	0.00343
847	0.00335
848	0.00326
849	0.00319
850	0.00311
851	0.00302
852	0.00293
853	0.00286
854	0.00280
855	0.00275
856	0.00269
857	0.00261
858	0.00253
859	0.00250
860	0.00246
861	0.00239
862	0.00233
863	0.00231
864	0.00230
865	0.00228
866	0.00227
867	0.00223
868	0.00219
869	0.00221
870	0.00222
871	0.00221
872	0.00219
873	0.00223
874	0.00227
875	0.00228
876	0.00229
877	0.00233
878	0.00236
879	0.00241
880	0.00246
881	0.00250
882	0.00254
883	0.00262
884	0.00270
885	0.00275
886	0.00280
887	0.00289
888	0.00299
889	0.00305
890	0.00311
891	0.00317
892	0.00323
893	0.00331
894	0.00338
895	0.00340
896	0.00342
897	0.00341
898	0.00340
899	0.00334
900	0.00329
901	0.00311
902	0.00294
903	0.00276
904	0.00259
905	0.00234
906	0.00208
907	0.00185
908	0.00162
909	0.00140
910	0.00117
911	0.00101
912	0.00084
913	0.00072
914	0.00060
915	0.00051
916	0.00043
917	0.00038
918	0.00033
919	0.00029
920	0.00025
921	0.00024
922	0.00023
923	0.00020
924	0.00017
925	0.00016
926	0.00015
927	0.00015
928	0.00015
929	0.00015
930	0.00014
931	0.00014
932	0.00014
933	0.00013
934	0.00012
935	0.00013
936	0.00013
937	0.00014
938	0.00014
939	0.00013
940	0.00012
941	0.00012
942	0.00012
943	0.00012
944	0.00012
945	0.00012
946	0.00012
947	0.00012
948	0.00012
949	0.00011
950	0.00011
951	0.00012
952	0.00013
953	0.00012
954	0.00011
955	0.00011
956	0.00011
957	0.00012
958	0.00013
959	0.00012
960	0.00011
961	0.00012
962	0.00012
963	0.00012
964	0.00012
965	0.00012
966	0.00013
967	0.00013
968	0.00012
969	0.00012
970	0.00012
971	0.00012
972	0.00011
973	0.00011
974	0.00011
975	0.00012
976	0.00013
977	0.00013
978	0.00013
979	0.00012
980	0.00012
981	0.00011
982	0.00011
983	0.00011
984	0.00011
985	0.00012
986	0.00012
987	0.00012
988	0.00012
989	0.00013
990	0.00013
991	0.00014
992	0.00015
993	0.00015
994	0.00015
995	0.00014
996	0.00014
997	0.00013
998	0.00012
999	0.00012
1000	0.00012
;;
;; BAND MS3
400	0.00322
401	0.00362
402	0.00402
403	0.00452
404	0.00503
405	0.00495
406	0.00487
407	0.00483
408	0.00479
409	0.00414
410	0.00350
411	0.00367
412	0.00385
413	0.00402
414	0.00420
415	0.00412
416	0.00404
417	0.00364
418	0.00324
419	0.00338
420	0.00351
421	0.00359
422	0.00368
423	0.00369
424	0.00370
425	0.00338
426	0.00305
427	0.00342
428	0.00378
429	0.00347
430	0.00316
431	0.00323
432	0.00329
433	0.00322
434	0.00315
435	0.00316
436	0.00317
437	0.00304
438	0.00292
439	0.00243
440	0.00194
441	0.00177
442	0.00160
443	0.00133
444	0.00106
445	0.00134
446	0.00162
447	0.00189
448	0.00217
449	0.00257
450	0.00296
451	0.00312
452	0.00328
453	0.00323
454	0.00318
455	0.00396
456	0.00475
457	0.00537
458	0.00600
459	0.00662
460	0.00725
461	0.00782
462	0.00839
463	0.00826
464	0.00812
465	0.00782
466	0.00753
467	0.00749
468	0.00746
469	0.00833
470	0.00920
471	0.00979
472	0.01039
473	0.00998
474	0.00957
475	0.00926
476	0.00896
477	0.00865
478	0.00834
479	0.00855
480	0.00875
481	0.00954
482	0.01034
483	0.01159
484	0.01285
485	0.01264
486	0.01243
487	0.01134
488	0.01026
489	0.00948
490	0.00872
491	0.00872
492	0.00871
493	0.00901
494	0.00932
495	0.00958
496	0.00984
497	0.00906
498	0.00829
499	0.00743
500	0.00657
501	0.00586
502	0.00516
503	0.00483
504	0.00450
505	0.00452
506	0.00454
507	0.00501
508	0.00548
509	0.00551
510	0.00555
511	0.00532
512	0.00508
513	0.00470
514	0.00432
515	0.00418
516	0.00404
517	0.00408
518	0.00412
519	0.00448
520	0.00484
521	0.00535
522	0.00586
523	0.00655
524	0.00723
525	0.00724
526	0.00726
527	0.00657
528	0.00590
529	0.00535
530	0.00480
531	0.00454
532	0.00428
533	0.00445
534	0.00461
535	0.00501
536	0.00540
537	0.00623
538	0.00706
539	0.00778
540	0.00851
541	0.00851
542	0.00850
543	0.00775
544	0.00699
545	0.00630
546	0.00561
547	0.00535
548	0.00510
549	0.00503
550	0.00496
551	0.00503
552	0.00509
553	0.00527
554	0.00544
555	0.00558
556	0.00571
557	0.00566
558	0.00560
559	0.00536
560	0.00512
561	0.00492
562	0.00473
563	0.00458
564	0.00443
565	0.00434
566	0.00424
567	0.00428
568	0.00431
569	0.00430
570	0.00429
571	0.00422
572	0.00416
573	0.00403
574	0.00389
575	0.00356
576	0.00324
577	0.00295
578	0.00267
579	0.00243
580	0.00219
581	0.00201
582	0.00184
583	0.00171
584	0.00158
585	0.00151
586	0.00144
587	0.00133
588	0.00123
589	0.00126
590	0.00129
591	0.00121
592	0.00113
593	0.00119
594	0.00126
595	0.00126
596	0.00126
597	0.00127
598	0.00129
599	0.00133
600	0.00136
601	0.00145
602	0.00154
603	0.00163
604	0.00172
605	0.00189
606	0.00205
607	0.00224
608	0.00243
609	0.00273
610	0.00302
611	0.00355
612	0.00407
613	0.00489
614	0.00570
615	0.00702
616	0.00834
617	0.01067
618	0.01300
619	0.01726
620	0.02152
621	0.02989
622	0.03826
623	0.05579
624	0.07333
625	0.10863
626	0.14394
627	0.20985
628	0.27576
629	0.37436
630	0.47296
631	0.58643
632	0.69990
633	0.78742
634	0.87494
635	0.91625
636	0.95755
637	0.96457
638	0.97159
639	0.97678
640	0.98198
641	0.98315
642	0.98433
643	0.98865
644	0.99298
645	0.99649
646	1.00000
647	0.99659
648	0.99319
649	0.99343
650	0.99366
651	0.98724
652	0.98083
653	0.98034
654	0.97984
655	0.97666
656	0.97347
657	0.96631
658	0.95915
659	0.95404
660	0.94894
661	0.94191
662	0.93489
663	0.92993
664	0.92496
665	0.92044
666	0.91591
667	0.91196
668	0.90800
669	0.90442
670	0.90083
671	0.90179
672	0.90274
673	0.90296
674	0.90318
675	0.90733
676	0.91147
677	0.91137
678	0.91126
679	0.91494
680	0.91862
681	0.91990
682	0.92117
683	0.92623
684	0.93130
685	0.92612
686	0.92095
687	0.88187
688	0.84279
689	0.75797
690	0.67315
691	0.55600
692	0.43886
693	0.33816
694	0.23746
695	0.17695
696	0.11644
697	0.08688
698	0.05731
699	0.04345
700	0.02958
701	0.02293
702	0.01628
703	0.01294
704	0.00960
705	0.00781
706	0.00602
707	0.00497
708	0.00392
709	0.00329
710	0.00266
711	0.00226
712	0.00184
713	0.00160
714	0.00135
715	0.00120
716	0.00104
717	0.00093
718	0.00083
719	0.00074
720	0.00066
721	0.00062
722	0.00058
723	0.00052
724	0.00047
725	0.00045
726	0.00044
727	0.00039
728	0.00034
729	0.00034
730	0.00034
731	0.00035
732	0.00036
733	0.00037
734	0.00038
735	0.00037
736	0.00036
737	0.00035
738	0.00035
739	0.00037
740	0.00039
741	0.00042
742	0.00046
743	0.00048
744	0.00050
745	0.00060
746	0.00070
747	0.00077
748	0.00084
749	0.00097
750	0.00110
751	0.00127
752	0.00144
753	0.00167
754	0.00191
755	0.00225
756	0.00260
757	0.00295
758	0.00331
759	0.00371
760	0.00412
761	0.00446
762	0.00479
763	0.00502
764	0.00524
765	0.00525
766	0.00527
767	0.00509
768	0.00491
769	0.00470
770	0.00450
771	0.00431
772	0.00412
773	0.00401
774	0.00390
775	0.00385
776	0.00380
777	0.00385
778	0.00390
779	0.00396
780	0.00401
781	0.00419
782	0.00437
783	0.00456
784	0.00475
785	0.00497
786	0.00519
787	0.00529
788	0.00541
789	0.00545
790	0.00551
791	0.00545
792	0.00539
793	0.00522
794	0.00504
795	0.00483
796	0.00463
797	0.00441
798	0.00420
799	0.00401
800	0.00382
801	0.00371
802	0.00359
803	0.00349
804	0.00338
805	0.00335
806	0.00332
807	0.00329
808	0.00327
809	0.00331
810	0.00335
811	0.00341
812	0.00347
813	0.00353
814	0.00360
815	0.00374
816	0.00389
817	0.00407
818	0.00426
819	0.00444
820	0.00462
821	0.00483
822	0.00505
823	0.00520
824	0.00535
825	0.00551
826	0.00568
827	0.00569
828	0.00571
829	0.00566
830	0.00561
831	0.00537
832	0.00513
833	0.00492
834	0.00472
835	0.00453
836	0.00435
837	0.00412
838	0.00388
839	0.00367
840	0.00345
841	0.00335
842	0.00324
843	0.00314
844	0.00303
845	0.00299
846	0.00296
847	0.00291
848	0.00287
849	0.00284
850	0.00282
851	0.00286
852	0.00291
853	0.00295
854	0.00299
855	0.00307
856	0.00315
857	0.00321
858	0.00327
859	0.00337
860	0.00347
861	0.00361
862	0.00375
863	0.00383
864	0.00392
865	0.00396
866	0.00400
867	0.00396
868	0.00393
869	0.00394
870	0.00395
871	0.00390
872	0.00385
873	0.00378
874	0.00371
875	0.00361
876	0.00350
877	0.00341
878	0.00331
879	0.00323
880	0.00314
881	0.00306
882	0.00298
883	0.00292
884	0.00286
885	0.00279
886	0.00272
887	0.00270
888	0.00267
889	0.00266
890	0.00266
891	0.00268
892	0.00269
893	0.00270
894	0.00271
895	0.00274
896	0.00277
897	0.00284
898	0.00290
899	0.00285
900	0.00281
901	0.00269
902	0.00257
903	0.00245
904	0.00233
905	0.00212
906	0.00191
907	0.00171
908	0.00151
909	0.00129
910	0.00108
911	0.00090
912	0.00073
913	0.00058
914	0.00043
915	0.00035
916	0.00027
917	0.00016
918	0.00006
919	0.00001
920	-0.00005
921	-0.00009
922	-0.00013
923	-0.00016
924	-0.00018
925	-0.00019
926	-0.00020
927	-0.00020
928	-0.00020
929	-0.00020
930	-0.00020
931	-0.00018
932	-0.00016
933	-0.00019
934	-0.00023
935	-0.00022
936	-0.00021
937	-0.00025
938	-0.00029
939	-0.00028
940	-0.00026
941	-0.00026
942	-0.00025
943	-0.00024
944	-0.00023
945	-0.00024
946	-0.00025
947	-0.00027
948	-0.00030
949	-0.00027
950	-0.00024
951	-0.00026
952	-0.00027
953	-0.00026
954	-0.00025
955	-0.00026
956	-0.00026
957	-0.00024
958	-0.00022
959	-0.00022
960	-0.00023
961	-0.00022
962	-0.00022
963	-0.00022
964	-0.00022
965	-0.00023
966	-0.00025
967	-0.00024
968	-0.00024
969	-0.00024
970	-0.00024
971	-0.00024
972	-0.00023
973	-0.00023
974	-0.00024
975	-0.00024
976	-0.00025
977	-0.00025
978	-0.00026
979	-0.00025
980	-0.00025
981	-0.00025
982	-0.00026
983	-0.00025
984	-0.00025
985	-0.00027
986	-0.00030
987	-0.00027
988	-0.00025
989	-0.00024
990	-0.00024
991	-0.00025
992	-0.00026
993	-0.00024
994	-0.00021
995	-0.00023
996	-0.00025
997	-0.00027
998	-0.00028
999	-0.00026
1000	-0.00024
;;
;; BAND MS4
400	0.00766
401	0.00757
402	0.00749
403	0.00771
404	0.00792
405	0.00754
406	0.00715
407	0.00702
408	0.00688
409	0.00649
410	0.00610
411	0.00615
412	0.00621
413	0.00643
414	0.00666
415	0.00669
416	0.00672
417	0.00668
418	0.00664
419	0.00666
420	0.00669
421	0.00625
422	0.00582
423	0.00570
424	0.00557
425	0.00537
426	0.00516
427	0.00518
428	0.00520
429	0.00513
430	0.00507
431	0.00516
432	0.00525
433	0.00535
434	0.00546
435	0.00539
436	0.00531
437	0.00541
438	0.00551
439	0.00545
440	0.00540
441	0.00535
442	0.00531
443	0.00515
444	0.00500
445	0.00531
446	0.00561
447	0.00546
448	0.00531
449	0.00539
450	0.00547
451	0.00559
452	0.00570
453	0.00593
454	0.00617
455	0.00614
456	0.00611
457	0.00586
458	0.00562
459	0.00574
460	0.00586
461	0.00609
462	0.00633
463	0.00702
464	0.00771
465	0.00877
466	0.00982
467	0.00997
468	0.01011
469	0.00999
470	0.00986
471	0.00977
472	0.00969
473	0.00961
474	0.00953
475	0.00943
476	0.00933
477	0.00927
478	0.00923
479	0.00934
480	0.00945
481	0.01018
482	0.01091
483	0.01235
484	0.01378
485	0.01476
486	0.01573
487	0.01537
488	0.01503
489	0.01380
490	0.01258
491	0.01196
492	0.01135
493	0.01192
494	0.01249
495	0.01333
496	0.01417
497	0.01442
498	0.01468
499	0.01382
500	0.01296
501	0.01209
502	0.01122
503	0.01064
504	0.01006
505	0.01060
506	0.01113
507	0.01132
508	0.01151
509	0.01054
510	0.00956
511	0.00809
512	0.00661
513	0.00570
514	0.00479
515	0.00449
516	0.00418
517	0.00400
518	0.00382
519	0.00383
520	0.00383
521	0.00396
522	0.00410
523	0.00447
524	0.00484
525	0.00578
526	0.00671
527	0.00791
528	0.00912
529	0.00970
530	0.01030
531	0.00961
532	0.00893
533	0.00843
534	0.00793
535	0.00792
536	0.00791
537	0.00772
538	0.00753
539	0.00710
540	0.00667
541	0.00633
542	0.00599
543	0.00587
544	0.00575
545	0.00600
546	0.00625
547	0.00723
548	0.00822
549	0.00985
550	0.01148
551	0.01309
552	0.01470
553	0.01412
554	0.01355
555	0.01175
556	0.00996
557	0.00873
558	0.00750
559	0.00696
560	0.00643
561	0.00614
562	0.00586
563	0.00594
564	0.00602
565	0.00634
566	0.00666
567	0.00742
568	0.00817
569	0.00961
570	0.01105
571	0.01307
572	0.01508
573	0.01642
574	0.01776
575	0.01659
576	0.01543
577	0.01286
578	0.01030
579	0.00861
580	0.00693
581	0.00624
582	0.00556
583	0.00543
584	0.00529
585	0.00566
586	0.00603
587	0.00736
588	0.00869
589	0.01085
590	0.01301
591	0.01236
592	0.01172
593	0.00889
594	0.00607
595	0.00467
596	0.00327
597	0.00276
598	0.00226
599	0.00207
600	0.00189
601	0.00182
602	0.00174
603	0.00167
604	0.00159
605	0.00156
606	0.00154
607	0.00152
608	0.00151
609	0.00162
610	0.00173
611	0.00196
612	0.00219
613	0.00275
614	0.00332
615	0.00439
616	0.00546
617	0.00700
618	0.00853
619	0.00974
620	0.01095
621	0.01078
622	0.01062
623	0.00957
624	0.00852
625	0.00791
626	0.00730
627	0.00732
628	0.00735
629	0.00778
630	0.00822
631	0.00902
632	0.00981
633	0.01064
634	0.01148
635	0.01194
636	0.01239
637	0.01209
638	0.01179
639	0.01104
640	0.01030
641	0.00968
642	0.00905
643	0.00884
644	0.00863
645	0.00893
646	0.00923
647	0.00998
648	0.01072
649	0.01214
650	0.01357
651	0.01547
652	0.01737
653	0.01966
654	0.02194
655	0.02384
656	0.02573
657	0.02619
658	0.02665
659	0.02652
660	0.02639
661	0.02623
662	0.02606
663	0.02551
664	0.02497
665	0.02257
666	0.02016
667	0.01641
668	0.01267
669	0.00986
670	0.00706
671	0.00550
672	0.00394
673	0.00318
674	0.00243
675	0.00205
676	0.00168
677	0.00146
678	0.00124
679	0.00112
680	0.00101
681	0.00094
682	0.00088
683	0.00084
684	0.00081
685	0.00078
686	0.00075
687	0.00073
688	0.00070
689	0.00073
690	0.00075
691	0.00073
692	0.00071
693	0.00072
694	0.00073
695	0.00079
696	0.00084
697	0.00091
698	0.00098
699	0.00106
700	0.00114
701	0.00130
702	0.00145
703	0.00168
704	0.00190
705	0.00226
706	0.00260
707	0.00304
708	0.00348
709	0.00384
710	0.00420
711	0.00423
712	0.00427
713	0.00405
714	0.00384
715	0.00357
716	0.00330
717	0.00304
718	0.00278
719	0.00261
720	0.00243
721	0.00235
722	0.00226
723	0.00223
724	0.00219
725	0.00220
726	0.00220
727	0.00223
728	0.00227
729	0.00237
730	0.00248
731	0.00263
732	0.00277
733	0.00298
734	0.00318
735	0.00351
736	0.00384
737	0.00433
738	0.00482
739	0.00556
740	0.00630
741	0.00741
742	0.00852
743	0.01018
744	0.01185
745	0.01459
746	0.01734
747	0.02183
748	0.02632
749	0.03382
750	0.04131
751	0.05420
752	0.06708
753	0.08837
754	0.10965
755	0.14410
756	0.17855
757	0.23148
758	0.28441
759	0.34940
760	0.41438
761	0.49151
762	0.56864
763	0.63779
764	0.70694
765	0.75702
766	0.80710
767	0.83743
768	0.86776
769	0.88393
770	0.90010
771	0.90916
772	0.91823
773	0.92464
774	0.93106
775	0.93620
776	0.94135
777	0.94475
778	0.94815
779	0.95041
780	0.95268
781	0.95417
782	0.95566
783	0.95640
784	0.95715
785	0.95957
786	0.96198
787	0.96167
788	0.96135
789	0.96288
790	0.96441
791	0.96907
792	0.97371
793	0.97534
794	0.97696
795	0.97722
796	0.97747
797	0.98030
798	0.98312
799	0.98567
800	0.98822
801	0.99040
802	0.99258
803	0.99316
804	0.99375
805	0.99688
806	1.00000
807	0.99636
808	0.99272
809	0.99137
810	0.99002
811	0.98617
812	0.98233
813	0.98218
814	0.98203
815	0.98200
816	0.98196
817	0.97950
818	0.97704
819	0.97502
820	0.97300
821	0.96938
822	0.96577
823	0.96140
824	0.95703
825	0.95263
826	0.94821
827	0.94100
828	0.93378
829	0.92872
830	0.92365
831	0.91845
832	0.91324
833	0.90641
834	0.89958
835	0.89284
836	0.88610
837	0.87671
838	0.86732
839	0.85781
840	0.84831
841	0.84132
842	0.83432
843	0.82554
844	0.81675
845	0.80661
846	0.79647
847	0.79218
848	0.78789
849	0.77950
850	0.77110
851	0.76713
852	0.76316
853	0.75738
854	0.75159
855	0.74957
856	0.74755
857	0.74352
858	0.73950
859	0.73927
860	0.73904
861	0.73521
862	0.73139
863	0.72986
864	0.72834
865	0.72424
866	0.72015
867	0.71779
868	0.71543
869	0.71561
870	0.71579
871	0.71247
872	0.70916
873	0.71084
874	0.71252
875	0.71266
876	0.71280
877	0.71407
878	0.71534
879	0.71645
880	0.71756
881	0.71648
882	0.71541
883	0.71136
884	0.70732
885	0.70258
886	0.69785
887	0.69367
888	0.68949
889	0.68099
890	0.67249
891	0.66800
892	0.66350
893	0.65057
894	0.63764
895	0.61565
896	0.59367
897	0.55611
898	0.51856
899	0.46002
900	0.40148
901	0.34378
902	0.28608
903	0.22838
904	0.17068
905	0.13227
906	0.09385
907	0.07169
908	0.04952
909	0.03723
910	0.02495
911	0.01857
912	0.01219
913	0.00904
914	0.00590
915	0.00439
916	0.00287
917	0.00214
918	0.00141
919	0.00107
920	0.00073
921	0.00055
922	0.00037
923	0.00029
924	0.00021
925	0.00016
926	0.00012
927	0.00011
928	0.00009
929	0.00009
930	0.00008
931	0.00007
932	0.00006
933	0.00005
934	0.00004
935	0.00004
936	0.00004
937	0.00003
938	0.00003
939	0.00003
940	0.00003
941	0.00004
942	0.00004
943	0.00004
944	0.00003
945	0.00004
946	0.00004
947	0.00004
948	0.00003
949	0.00003
950	0.00003
951	0.00002
952	0.00000
953	0.00002
954	0.00005
955	0.00005
956	0.00005
957	0.00003
958	0.00001
959	0.00004
960	0.00006
961	0.00004
962	0.00002
963	0.00002
964	0.00001
965	0.00002
966	0.00002
967	0.00002
968	0.00002
969	0.00003
970	0.00003
971	0.00003
972	0.00003
973	0.00003
974	0.00002
975	0.00001
976	0.00001
977	0.00002
978	0.00002
979	0.00004
980	0.00005
981	0.00004
982	0.00002
983	0.00002
984	0.00002
985	0.00003
986	0.00003
987	0.00004
988	0.00004
989	0.00004
990	0.00003
991	0.00004
992	0.00006
993	0.00005
994	0.00003
995	0.00003
996	0.00003
997	0.00002
998	0.00001
999	0.00003
1000	0.00004
;;
;; BAND PAN
400	0.02304
401	0.02153
402	0.02002
403	0.0198
404	0.01959
405	0.01892
406	0.01826
407	0.01934
408	0.02041
409	0.01973
410	0.01906
411	0.01926
412	0.01946
413	0.01803
414	0.0166
415	0.01645
416	0.0163
417	0.01565
418	0.01499
419	0.01594
420	0.01689
421	0.0169
422	0.01691
423	0.0166
424	0.01629
425	0.01551
426	0.01474
427	0.0154
428	0.01605
429	0.01622
430	0.0164
431	0.01619
432	0.01598
433	0.01601
434	0.01603
435	0.01669
436	0.01733
437	0.01693
438	0.01652
439	0.01699
440	0.01747
441	0.0195
442	0.02153
443	0.02201
444	0.02249
445	0.02983
446	0.03716
447	0.06201
448	0.08686
449	0.15674
450	0.22661
451	0.30158
452	0.37654
453	0.40711
454	0.43769
455	0.49452
456	0.55136
457	0.55505
458	0.55873
459	0.57516
460	0.59158
461	0.60448
462	0.61738
463	0.61958
464	0.62179
465	0.62622
466	0.63065
467	0.6471
468	0.66356
469	0.67853
470	0.6935
471	0.7062
472	0.7189
473	0.71916
474	0.71942
475	0.73382
476	0.74822
477	0.77045
478	0.79268
479	0.81192
480	0.83116
481	0.84742
482	0.86368
483	0.87675
484	0.88983
485	0.87435
486	0.85887
487	0.86845
488	0.87803
489	0.89173
490	0.90544
491	0.92078
492	0.93612
493	0.95326
494	0.9704
495	0.97183
496	0.97327
497	0.96363
498	0.954
499	0.96253
500	0.97106
501	0.97066
502	0.97025
503	0.94968
504	0.92911
505	0.92482
506	0.92053
507	0.91445
508	0.90837
509	0.89312
510	0.87787
511	0.87311
512	0.86835
513	0.85523
514	0.84211
515	0.84485
516	0.8476
517	0.8329
518	0.81821
519	0.81552
520	0.81283
521	0.79529
522	0.77775
523	0.77494
524	0.77212
525	0.76193
526	0.75175
527	0.74314
528	0.73454
529	0.73349
530	0.73243
531	0.72087
532	0.70931
533	0.70149
534	0.69366
535	0.69732
536	0.70098
537	0.70032
538	0.69965
539	0.6982
540	0.69675
541	0.69914
542	7.02E-01
543	7.1E-01
544	7.18E-01
545	7.23E-01
546	7.27E-01
547	7.41E-01
548	7.54E-01
549	7.66E-01
550	7.78E-01
551	8.03E-01
552	8.28E-01
553	8.46E-01
554	8.63E-01
555	8.83E-01
556	9.02E-01
557	9.14E-01
558	9.27E-01
559	9.37E-01
560	9.47E-01
561	9.61E-01
562	9.75E-01
563	9.79E-01
564	9.83E-01
565	9.85E-01
566	9.88E-01
567	9.85E-01
568	9.82E-01
569	9.77E-01
570	9.72E-01
571	9.67E-01
572	9.62E-01
573	9.65E-01
574	9.68E-01
575	9.68E-01
576	9.68E-01
577	9.71E-01
578	9.74E-01
579	9.78E-01
580	9.82E-01
581	9.78E-01
582	9.75E-01
583	9.74E-01
584	9.73E-01
585	9.71E-01
586	9.68E-01
587	9.58E-01
588	9.47E-01
589	9.41E-01
590	9.35E-01
591	9.35E-01
592	9.35E-01
593	9.35E-01
594	9.35E-01
595	9.27E-01
596	9.2E-01
597	9.12E-01
598	9.04E-01
599	8.99E-01
600	8.94E-01
601	8.98E-01
602	9.02E-01
603	9.07E-01
604	9.11E-01
605	9.12E-01
606	9.13E-01
607	9.13E-01
608	9.14E-01
609	9.18E-01
610	9.22E-01
611	9.28E-01
612	9.33E-01
613	9.43E-01
614	9.53E-01
615	9.47E-01
616	9.41E-01
617	9.45E-01
618	9.5E-01
619	9.5E-01
620	9.49E-01
621	9.54E-01
622	9.58E-01
623	9.58E-01
624	9.58E-01
625	9.58E-01
626	9.59E-01
627	9.57E-01
628	9.56E-01
629	9.56E-01
630	9.56E-01
631	9.53E-01
632	9.5E-01
633	9.46E-01
634	9.43E-01
635	9.41E-01
636	9.39E-01
637	9.31E-01
638	9.23E-01
639	9.24E-01
640	9.25E-01
641	9.21E-01
642	9.16E-01
643	9.16E-01
644	9.15E-01
645	9.2E-01
646	9.24E-01
647	9.25E-01
648	9.27E-01
649	9.31E-01
650	9.34E-01
651	9.35E-01
652	9.35E-01
653	9.4E-01
654	9.45E-01
655	9.43E-01
656	9.4E-01
657	9.38E-01
658	9.35E-01
659	9.35E-01
660	9.34E-01
661	9.33E-01
662	9.32E-01
663	9.37E-01
664	9.41E-01
665	9.42E-01
666	9.43E-01
667	9.43E-01
668	9.43E-01
669	9.48E-01
670	9.53E-01
671	9.57E-01
672	9.6E-01
673	9.63E-01
674	9.67E-01
675	9.77E-01
676	9.87E-01
677	9.85E-01
678	9.84E-01
679	9.89E-01
680	9.95E-01
681	9.97E-01
682	1E+00
683	9.98E-01
684	9.96E-01
685	9.98E-01
686	9.99E-01
687	9.97E-01
688	9.96E-01
689	9.93E-01
690	9.9E-01
691	9.84E-01
692	9.79E-01
693	9.76E-01
694	9.73E-01
695	9.71E-01
696	9.69E-01
697	9.68E-01
698	9.67E-01
699	9.64E-01
700	9.62E-01
701	9.57E-01
702	9.53E-01
703	9.52E-01
704	9.51E-01
705	9.46E-01
706	9.42E-01
707	9.4E-01
708	9.39E-01
709	9.31E-01
710	9.24E-01
711	9.19E-01
712	9.15E-01
713	9.11E-01
714	9.08E-01
715	9.08E-01
716	9.07E-01
717	9.02E-01
718	8.97E-01
719	8.94E-01
720	8.9E-01
721	8.87E-01
722	8.84E-01
723	8.81E-01
724	8.78E-01
725	8.74E-01
726	8.71E-01
727	8.7E-01
728	8.69E-01
729	8.67E-01
730	8.66E-01
731	8.64E-01
732	8.62E-01
733	8.6E-01
734	8.59E-01
735	8.59E-01
736	8.59E-01
737	8.61E-01
738	8.64E-01
739	8.63E-01
740	8.63E-01
741	8.63E-01
742	8.63E-01
743	8.62E-01
744	8.62E-01
745	8.61E-01
746	8.61E-01
747	8.6E-01
748	8.6E-01
749	8.57E-01
750	8.55E-01
751	8.55E-01
752	8.54E-01
753	8.49E-01
754	8.44E-01
755	8.4E-01
756	8.36E-01
757	8.32E-01
758	8.28E-01
759	8.2E-01
760	8.13E-01
761	8.14E-01
762	8.16E-01
763	8.19E-01
764	8.22E-01
765	8.28E-01
766	8.33E-01
767	8.33E-01
768	8.33E-01
769	8.39E-01
770	8.44E-01
771	8.46E-01
772	8.47E-01
773	8.52E-01
774	8.56E-01
775	8.59E-01
776	8.63E-01
777	8.64E-01
778	8.66E-01
779	8.67E-01
780	8.68E-01
781	8.71E-01
782	8.74E-01
783	8.75E-01
784	8.77E-01
785	8.76E-01
786	8.75E-01
787	8.74E-01
788	8.73E-01
789	8.72E-01
790	8.72E-01
791	8.72E-01
792	8.72E-01
793	8.74E-01
794	8.76E-01
795	8.75E-01
796	8.75E-01
797	8.73E-01
798	8.72E-01
799	8.69E-01
800	8.67E-01
801	8.67E-01
802	8.67E-01
803	8.71E-01
804	8.75E-01
805	8.76E-01
806	8.77E-01
807	8.74E-01
808	8.71E-01
809	8.69E-01
810	8.68E-01
811	8.65E-01
812	8.63E-01
813	8.64E-01
814	8.65E-01
815	8.67E-01
816	8.68E-01
817	8.72E-01
818	8.75E-01
819	8.71E-01
820	8.68E-01
821	8.68E-01
822	8.69E-01
823	8.65E-01
824	8.61E-01
825	8.58E-01
826	8.55E-01
827	8.54E-01
828	8.52E-01
829	8.5E-01
830	8.47E-01
831	8.42E-01
832	8.36E-01
833	8.31E-01
834	8.26E-01
835	8.19E-01
836	8.12E-01
837	8.07E-01
838	8.01E-01
839	7.97E-01
840	7.92E-01
841	7.87E-01
842	7.82E-01
843	7.77E-01
844	7.71E-01
845	7.61E-01
846	7.51E-01
847	7.5E-01
848	7.48E-01
849	7.46E-01
850	7.43E-01
851	7.4E-01
852	7.36E-01
853	7.32E-01
854	7.28E-01
855	7.3E-01
856	7.32E-01
857	7.31E-01
858	7.29E-01
859	7.28E-01
860	7.27E-01
861	7.24E-01
862	7.22E-01
863	7.22E-01
864	7.23E-01
865	7.23E-01
866	7.24E-01
867	7.2E-01
868	7.17E-01
869	7.19E-01
870	7.21E-01
871	7.22E-01
872	7.22E-01
873	7.24E-01
874	7.27E-01
875	7.29E-01
876	7.31E-01
877	7.33E-01
878	7.34E-01
879	7.36E-01
880	7.38E-01
881	7.42E-01
882	7.47E-01
883	7.46E-01
884	7.46E-01
885	7.47E-01
886	7.48E-01
887	7.45E-01
888	7.41E-01
889	7.38E-01
890	7.34E-01
891	7.26E-01
892	7.18E-01
893	7.06E-01
894	6.95E-01
895	6.77E-01
896	6.6E-01
897	6.28E-01
898	5.97E-01
899	5.51E-01
900	5.04E-01
901	4.46E-01
902	3.88E-01
903	3.3E-01
904	2.73E-01
905	2.19E-01
906	1.65E-01
907	1.35E-01
908	1.05E-01
909	8.27E-02
910	6.07E-02
911	4.97E-02
912	3.86E-02
913	3.24E-02
914	2.62E-02
915	1.99E-02
916	1.35E-02
917	1.18E-02
918	1.01E-02
919	7.71E-03
920	5.34E-03
921	4.31E-03
922	3.28E-03
923	3.03E-03
924	2.77E-03
925	2.11E-03
926	1.45E-03
927	1.28E-03
928	1.11E-03
929	9.93E-04
930	8.79E-04
931	6.82E-04
932	4.87E-04
933	4.38E-04
934	3.89E-04
935	2.24E-04
936	5.92E-05
937	1.43E-04
938	2.26E-04
939	6.58E-05
940	-9.45E-05
941	-6.06E-06
942	8.24E-05
943	1.11E-04
944	1.4E-04
945	5.34E-05
946	-3.24E-05
947	4.5E-05
948	1.23E-04
949	5.66E-05
950	-9.4E-06
951	-2.82E-05
952	-4.71E-05
953	-7.71E-05
954	-1.07E-04
955	-1.38E-04
956	-1.69E-04
957	-4.95E-05
958	7.01E-05
959	5.8E-07
960	-6.94E-05
961	-3.01E-05
962	1.05E-05
963	1.25E-05
964	1.38E-05
965	-1.86E-05
966	-5.09E-05
967	-1.34E-05
968	2.4E-05
969	-6.49E-05
970	-1.54E-04
971	-2.06E-04
972	-2.58E-04
973	-1.58E-04
974	-5.68E-05
975	-4.02E-05
976	-2.35E-05
977	-1.13E-04
978	-2.03E-04
979	-1.47E-04
980	-9.08E-05
981	3.71E-05
982	1.65E-04
983	2.61E-05
984	-1.14E-04
985	-1.25E-04
986	-1.35E-04
987	-7.49E-05
988	-1.47E-05
989	-6.15E-05
990	-1.08E-04
991	-6.35E-05
992	-1.87E-05
993	-1.47E-05
994	-1.07E-05
995	-5.27E-05
996	-9.47E-05
997	-4.03E-05
998	1.45E-05
999	3.46E-05
1000	5.61E-05
;;