;; L5/TM Thermal Band RSR
;;
;; tabulated QV 2019-01-28
;;
;; datasets: wavelength RSR
;;
;; BAND 6
10000 0.0058
10020 0.0073
10030 0.0081
10040 0.0088
10050 0.0096
10060 0.0104
10070 0.0112
10080 0.0120
10090 0.0128
10100 0.0136
10120 0.0165
10130 0.0018
10140 0.0195
10150 0.0210
10160 0.0226
10170 0.0241
10180 0.0256
10190 0.0272
10200 0.0288
10210 0.0334
10220 0.0381
10230 0.0428
10240 0.0476
10250 0.0524
10260 0.0572
10270 0.0621
10280 0.0670
10290 0.0719
10300 0.0769
10310 0.1011
10330 0.1502
10340 0.1751
10350 0.2002
10360 0.2256
10370 0.2511
10380 0.2769
10390 0.3029
10400 0.3292
10410 0.3633
10420 0.3974
10430 0.4317
10440 0.4661
10450 0.5005
10460 0.5350
10470 0.5696
10480 0.6043
10490 0.6391
10500 0.6739
10510 0.6839
10520 0.6940
10530 0.7042
10540 0.7145
10590 0.7671
10640 0.7833
10700 0.7908
10750 0.8158
10800 0.8413
10850 0.8743
10900 0.9081
10950 0.9412
11000 0.9751
11050 0.9793
11100 0.9834
11150 0.9693
11200 0.9552
11250 0.9688
11290 0.9798
11340 0.9849
11390 0.9896
11440 0.9929
11490 0.9989
11540 0.9682
11590 0.9290
11630 0.9302
11680 0.9450
11730 0.9589
11780 0.9721
11820 0.9782
11870 0.9806
11920 0.9813
11960 0.9797
12010 0.9769
12020 0.9759
12030 0.9749
12040 0.9739
12050 0.9729
12060 0.9719
12070 0.9708
12080 0.9698
12090 0.9688
12100 0.9677
12110 0.9665
12120 0.9653
12130 0.9640
12140 0.9627
12150 0.9615
12160 0.9602
12170 0.9589
12180 0.9577
12190 0.9564
12200 0.9551
12210 0.9481
12220 0.9412
12230 0.9343
12240 0.9274
12250 0.9205
12260 0.9136
12270 0.9067
12280 0.8999
12290 0.8930
12300 0.8861
12310 0.8568
12320 0.8275
12330 0.7982
12340 0.7690
12350 0.7398
12360 0.7136
12370 0.6814
12380 0.6523
12390 0.6232
12400 0.5940
12410 0.5614
12420 0.5286
12430 0.4957
12440 0.4627
12450 0.4296
12460 0.3964
12470 0.3631
12480 0.3297
12490 0.2962
12500 0.2627
12510 0.2403
12520 0.2181
12530 0.1960
12540 0.1741
12550 0.1523
12560 0.1307
12570 0.1092
12580 0.0879
12590 0.0667
12600 0.0458
12610 0.0433
12620 0.0409
12630 0.0385
12640 0.0361
12650 0.0337
12660 0.0314
12670 0.0291
12680 0.0268
12690 0.0245
12700 0.0223
12710 0.0209
12720 0.0195
12730 0.0182
12740 0.0168
12750 0.0155
12760 0.0141
12770 0.0128
12780 0.0115
12790 0.0101
12800 0.0088
12810 0.0085
12820 0.0081
12830 0.0078
12840 0.0074
12850 0.0071
12860 0.0068
12870 0.0064
12880 0.0061
12890 0.0058
12900 0.0054
;;